# co2a0000437.rd
# 120 trials, 64 chans, 416 samples 368 post_stim samples
# 3.906000 msecs uV
# S1 obj , trial 24
# FP1 chan 0
24 FP1 0 9.277
24 FP1 1 12.207
24 FP1 2 15.137
24 FP1 3 17.090
24 FP1 4 17.090
24 FP1 5 15.625
24 FP1 6 11.719
24 FP1 7 6.836
24 FP1 8 1.465
24 FP1 9 -2.930
24 FP1 10 -6.836
24 FP1 11 -8.789
24 FP1 12 -9.277
24 FP1 13 -8.789
24 FP1 14 -8.301
24 FP1 15 -7.324
24 FP1 16 -6.836
24 FP1 17 -5.371
24 FP1 18 -3.418
24 FP1 19 -0.488
24 FP1 20 1.953
24 FP1 21 2.441
24 FP1 22 1.465
24 FP1 23 -0.977
24 FP1 24 -1.465
24 FP1 25 -0.488
24 FP1 26 2.441
24 FP1 27 5.859
24 FP1 28 7.812
24 FP1 29 7.324
24 FP1 30 3.906
24 FP1 31 0.000
24 FP1 32 -3.418
24 FP1 33 -4.883
24 FP1 34 -5.371
24 FP1 35 -4.883
24 FP1 36 -4.883
24 FP1 37 -4.883
24 FP1 38 -4.395
24 FP1 39 -3.418
24 FP1 40 -0.977
24 FP1 41 0.977
24 FP1 42 0.977
24 FP1 43 -0.488
24 FP1 44 -2.930
24 FP1 45 -5.371
24 FP1 46 -6.836
24 FP1 47 -6.836
24 FP1 48 -7.324
24 FP1 49 -7.324
24 FP1 50 -6.836
24 FP1 51 -4.883
24 FP1 52 -1.465
24 FP1 53 2.441
24 FP1 54 4.883
24 FP1 55 4.395
24 FP1 56 1.953
24 FP1 57 -0.977
24 FP1 58 -2.441
24 FP1 59 -1.465
24 FP1 60 0.000
24 FP1 61 0.488
24 FP1 62 0.000
24 FP1 63 -0.977
24 FP1 64 -0.488
24 FP1 65 1.953
24 FP1 66 5.371
24 FP1 67 8.301
24 FP1 68 9.766
24 FP1 69 9.277
24 FP1 70 8.301
24 FP1 71 7.324
24 FP1 72 6.836
24 FP1 73 6.348
24 FP1 74 5.371
24 FP1 75 4.395
24 FP1 76 3.906
24 FP1 77 3.906
24 FP1 78 3.906
24 FP1 79 3.418
24 FP1 80 1.465
24 FP1 81 0.000
24 FP1 82 -0.488
24 FP1 83 0.488
24 FP1 84 1.953
24 FP1 85 3.418
24 FP1 86 2.930
24 FP1 87 0.977
24 FP1 88 -1.465
24 FP1 89 -3.418
24 FP1 90 -3.418
24 FP1 91 -2.930
24 FP1 92 -2.441
24 FP1 93 -2.930
24 FP1 94 -3.906
24 FP1 95 -4.883
24 FP1 96 -5.371
24 FP1 97 -4.883
24 FP1 98 -3.906
24 FP1 99 -0.977
24 FP1 100 2.441
24 FP1 101 5.371
24 FP1 102 6.348
24 FP1 103 4.395
24 FP1 104 0.000
24 FP1 105 -4.395
24 FP1 106 -6.836
24 FP1 107 -6.836
24 FP1 108 -5.859
24 FP1 109 -5.371
24 FP1 110 -6.348
24 FP1 111 -8.789
24 FP1 112 -10.742
24 FP1 113 -11.719
24 FP1 114 -10.254
24 FP1 115 -7.812
24 FP1 116 -5.371
24 FP1 117 -2.441
24 FP1 118 0.000
24 FP1 119 2.441
24 FP1 120 4.395
24 FP1 121 3.906
24 FP1 122 1.465
24 FP1 123 -3.418
24 FP1 124 -9.766
24 FP1 125 -14.160
24 FP1 126 -17.090
24 FP1 127 -17.578
24 FP1 128 -16.113
24 FP1 129 -13.672
24 FP1 130 -11.230
24 FP1 131 -8.789
24 FP1 132 -6.836
24 FP1 133 -5.859
24 FP1 134 -5.371
24 FP1 135 -5.371
24 FP1 136 -5.371
24 FP1 137 -4.883
24 FP1 138 -3.906
24 FP1 139 -1.953
24 FP1 140 -0.488
24 FP1 141 0.488
24 FP1 142 0.977
24 FP1 143 0.488
24 FP1 144 0.000
24 FP1 145 -0.488
24 FP1 146 -1.953
24 FP1 147 -3.418
24 FP1 148 -4.883
24 FP1 149 -5.859
24 FP1 150 -6.348
24 FP1 151 -6.348
24 FP1 152 -5.859
24 FP1 153 -4.395
24 FP1 154 -2.930
24 FP1 155 -0.977
24 FP1 156 0.488
24 FP1 157 1.953
24 FP1 158 3.418
24 FP1 159 6.348
24 FP1 160 9.277
24 FP1 161 12.207
24 FP1 162 12.695
24 FP1 163 9.766
24 FP1 164 4.395
24 FP1 165 -1.465
24 FP1 166 -6.348
24 FP1 167 -7.812
24 FP1 168 -6.836
24 FP1 169 -4.395
24 FP1 170 -0.977
24 FP1 171 0.977
24 FP1 172 2.441
24 FP1 173 3.418
24 FP1 174 2.930
24 FP1 175 2.441
24 FP1 176 0.977
24 FP1 177 0.488
24 FP1 178 1.465
24 FP1 179 3.906
24 FP1 180 6.836
24 FP1 181 9.277
24 FP1 182 9.766
24 FP1 183 9.766
24 FP1 184 8.301
24 FP1 185 7.812
24 FP1 186 6.348
24 FP1 187 4.395
24 FP1 188 1.953
24 FP1 189 -0.977
24 FP1 190 -2.930
24 FP1 191 -1.953
24 FP1 192 1.465
24 FP1 193 5.859
24 FP1 194 9.277
24 FP1 195 10.742
24 FP1 196 10.254
24 FP1 197 7.812
24 FP1 198 4.395
24 FP1 199 1.465
24 FP1 200 0.000
24 FP1 201 -0.488
24 FP1 202 0.000
24 FP1 203 0.977
24 FP1 204 1.465
24 FP1 205 1.465
24 FP1 206 0.977
24 FP1 207 0.488
24 FP1 208 -0.977
24 FP1 209 -1.465
24 FP1 210 -2.441
24 FP1 211 -3.418
24 FP1 212 -3.906
24 FP1 213 -2.441
24 FP1 214 0.000
24 FP1 215 4.395
24 FP1 216 9.277
24 FP1 217 13.184
24 FP1 218 14.648
24 FP1 219 13.184
24 FP1 220 9.766
24 FP1 221 5.859
24 FP1 222 3.418
24 FP1 223 2.930
24 FP1 224 4.395
24 FP1 225 4.883
24 FP1 226 3.906
24 FP1 227 1.465
24 FP1 228 -0.977
24 FP1 229 -2.441
24 FP1 230 -2.441
24 FP1 231 -2.930
24 FP1 232 -3.418
24 FP1 233 -4.395
24 FP1 234 -4.883
24 FP1 235 -2.930
24 FP1 236 0.488
24 FP1 237 3.418
24 FP1 238 3.906
24 FP1 239 0.488
24 FP1 240 -4.395
24 FP1 241 -8.789
24 FP1 242 -11.719
24 FP1 243 -12.207
24 FP1 244 -12.207
24 FP1 245 -12.695
24 FP1 246 -12.207
24 FP1 247 -11.230
24 FP1 248 -8.789
24 FP1 249 -6.836
24 FP1 250 -6.348
24 FP1 251 -8.789
24 FP1 252 -12.695
24 FP1 253 -16.602
24 FP1 254 -19.531
24 FP1 255 -20.508
# FP2 chan 1
24 FP2 0 7.151
24 FP2 1 10.569
24 FP2 2 13.011
24 FP2 3 15.452
24 FP2 4 16.429
24 FP2 5 16.429
24 FP2 6 14.476
24 FP2 7 9.593
24 FP2 8 3.733
24 FP2 9 -1.638
24 FP2 10 -5.544
24 FP2 11 -6.521
24 FP2 12 -5.544
24 FP2 13 -4.079
24 FP2 14 -3.591
24 FP2 15 -4.079
24 FP2 16 -5.056
24 FP2 17 -5.056
24 FP2 18 -3.103
24 FP2 19 0.315
24 FP2 20 3.245
24 FP2 21 4.710
24 FP2 22 4.222
24 FP2 23 1.780
24 FP2 24 -0.173
24 FP2 25 -0.661
24 FP2 26 0.804
24 FP2 27 3.245
24 FP2 28 4.710
24 FP2 29 3.733
24 FP2 30 1.292
24 FP2 31 -1.149
24 FP2 32 -3.103
24 FP2 33 -2.614
24 FP2 34 -1.638
24 FP2 35 -0.661
24 FP2 36 -1.149
24 FP2 37 -1.638
24 FP2 38 -1.638
24 FP2 39 -1.149
24 FP2 40 1.292
24 FP2 41 3.245
24 FP2 42 4.222
24 FP2 43 3.245
24 FP2 44 0.804
24 FP2 45 -1.638
24 FP2 46 -3.591
24 FP2 47 -5.056
24 FP2 48 -6.032
24 FP2 49 -6.521
24 FP2 50 -6.032
24 FP2 51 -4.079
24 FP2 52 -0.173
24 FP2 53 3.733
24 FP2 54 5.686
24 FP2 55 5.198
24 FP2 56 2.757
24 FP2 57 -1.149
24 FP2 58 -3.103
24 FP2 59 -4.079
24 FP2 60 -3.103
24 FP2 61 -1.638
24 FP2 62 -1.149
24 FP2 63 -0.173
24 FP2 64 0.804
24 FP2 65 2.757
24 FP2 66 4.710
24 FP2 67 6.663
24 FP2 68 7.151
24 FP2 69 7.151
24 FP2 70 6.663
24 FP2 71 7.151
24 FP2 72 7.640
24 FP2 73 8.128
24 FP2 74 8.128
24 FP2 75 7.151
24 FP2 76 6.175
24 FP2 77 5.686
24 FP2 78 5.198
24 FP2 79 4.222
24 FP2 80 3.245
24 FP2 81 1.780
24 FP2 82 0.804
24 FP2 83 0.804
24 FP2 84 2.268
24 FP2 85 3.733
24 FP2 86 4.710
24 FP2 87 4.222
24 FP2 88 1.780
24 FP2 89 -1.149
24 FP2 90 -4.079
24 FP2 91 -5.544
24 FP2 92 -5.544
24 FP2 93 -4.567
24 FP2 94 -4.079
24 FP2 95 -4.079
24 FP2 96 -5.544
24 FP2 97 -6.521
24 FP2 98 -6.032
24 FP2 99 -3.591
24 FP2 100 -0.173
24 FP2 101 2.757
24 FP2 102 3.733
24 FP2 103 2.268
24 FP2 104 -1.149
24 FP2 105 -4.079
24 FP2 106 -6.032
24 FP2 107 -5.544
24 FP2 108 -5.056
24 FP2 109 -5.056
24 FP2 110 -6.521
24 FP2 111 -8.962
24 FP2 112 -10.915
24 FP2 113 -10.915
24 FP2 114 -9.450
24 FP2 115 -7.009
24 FP2 116 -5.056
24 FP2 117 -3.103
24 FP2 118 -1.149
24 FP2 119 0.315
24 FP2 120 2.268
24 FP2 121 3.245
24 FP2 122 1.780
24 FP2 123 -2.126
24 FP2 124 -7.009
24 FP2 125 -11.892
24 FP2 126 -15.798
24 FP2 127 -16.774
24 FP2 128 -15.798
24 FP2 129 -13.845
24 FP2 130 -11.403
24 FP2 131 -8.962
24 FP2 132 -6.521
24 FP2 133 -4.567
24 FP2 134 -3.591
24 FP2 135 -3.591
24 FP2 136 -4.079
24 FP2 137 -4.079
24 FP2 138 -3.103
24 FP2 139 -1.149
24 FP2 140 0.315
24 FP2 141 0.804
24 FP2 142 -0.173
24 FP2 143 -2.126
24 FP2 144 -3.591
24 FP2 145 -4.079
24 FP2 146 -4.567
24 FP2 147 -4.567
24 FP2 148 -5.544
24 FP2 149 -6.521
24 FP2 150 -7.497
24 FP2 151 -7.497
24 FP2 152 -5.544
24 FP2 153 -2.614
24 FP2 154 0.315
24 FP2 155 2.757
24 FP2 156 3.245
24 FP2 157 2.757
24 FP2 158 2.268
24 FP2 159 2.268
24 FP2 160 4.222
24 FP2 161 7.151
24 FP2 162 9.104
24 FP2 163 9.104
24 FP2 164 6.175
24 FP2 165 1.292
24 FP2 166 -3.103
24 FP2 167 -5.544
24 FP2 168 -5.544
24 FP2 169 -2.614
24 FP2 170 0.804
24 FP2 171 3.245
24 FP2 172 3.733
24 FP2 173 2.757
24 FP2 174 1.780
24 FP2 175 0.804
24 FP2 176 1.292
24 FP2 177 2.268
24 FP2 178 2.757
24 FP2 179 3.245
24 FP2 180 4.222
24 FP2 181 4.710
24 FP2 182 5.686
24 FP2 183 6.175
24 FP2 184 6.663
24 FP2 185 6.175
24 FP2 186 5.198
24 FP2 187 3.733
24 FP2 188 2.268
24 FP2 189 1.292
24 FP2 190 0.804
24 FP2 191 1.780
24 FP2 192 3.733
24 FP2 193 5.686
24 FP2 194 7.640
24 FP2 195 9.104
24 FP2 196 10.081
24 FP2 197 10.569
24 FP2 198 9.593
24 FP2 199 7.640
24 FP2 200 4.710
24 FP2 201 1.780
24 FP2 202 0.315
24 FP2 203 0.804
24 FP2 204 1.780
24 FP2 205 3.245
24 FP2 206 2.757
24 FP2 207 1.292
24 FP2 208 -0.661
24 FP2 209 -1.638
24 FP2 210 -1.638
24 FP2 211 -0.173
24 FP2 212 1.780
24 FP2 213 3.733
24 FP2 214 6.663
24 FP2 215 9.104
24 FP2 216 11.546
24 FP2 217 14.476
24 FP2 218 15.940
24 FP2 219 16.429
24 FP2 220 14.964
24 FP2 221 13.011
24 FP2 222 11.058
24 FP2 223 9.593
24 FP2 224 7.640
24 FP2 225 5.686
24 FP2 226 3.245
24 FP2 227 0.804
24 FP2 228 -0.661
24 FP2 229 -0.661
24 FP2 230 0.315
24 FP2 231 1.292
24 FP2 232 1.780
24 FP2 233 -0.173
24 FP2 234 -1.638
24 FP2 235 -2.126
24 FP2 236 -0.173
24 FP2 237 2.757
24 FP2 238 4.222
24 FP2 239 3.733
24 FP2 240 0.315
24 FP2 241 -4.079
24 FP2 242 -7.497
24 FP2 243 -9.450
24 FP2 244 -9.450
24 FP2 245 -9.450
24 FP2 246 -9.450
24 FP2 247 -8.962
24 FP2 248 -7.497
24 FP2 249 -5.056
24 FP2 250 -3.591
24 FP2 251 -4.079
24 FP2 252 -7.009
24 FP2 253 -11.892
24 FP2 254 -16.286
24 FP2 255 -18.239
# F7 chan 2
24 F7 0 8.514
24 F7 1 12.909
24 F7 2 17.303
24 F7 3 18.768
24 F7 4 17.303
24 F7 5 12.421
24 F7 6 6.561
24 F7 7 1.678
24 F7 8 -1.740
24 F7 9 -4.669
24 F7 10 -8.087
24 F7 11 -11.505
24 F7 12 -13.947
24 F7 13 -13.458
24 F7 14 -10.529
24 F7 15 -6.622
24 F7 16 -4.181
24 F7 17 -2.716
24 F7 18 -1.740
24 F7 19 -0.763
24 F7 20 0.214
24 F7 21 -0.275
24 F7 22 -1.251
24 F7 23 -2.228
24 F7 24 -2.228
24 F7 25 0.702
24 F7 26 5.585
24 F7 27 9.491
24 F7 28 9.979
24 F7 29 7.050
24 F7 30 1.190
24 F7 31 -5.646
24 F7 32 -11.017
24 F7 33 -13.947
24 F7 34 -13.458
24 F7 35 -11.505
24 F7 36 -8.575
24 F7 37 -6.622
24 F7 38 -4.669
24 F7 39 -4.181
24 F7 40 -4.181
24 F7 41 -4.669
24 F7 42 -5.157
24 F7 43 -6.622
24 F7 44 -8.087
24 F7 45 -8.575
24 F7 46 -7.599
24 F7 47 -7.599
24 F7 48 -8.575
24 F7 49 -11.505
24 F7 50 -14.435
24 F7 51 -15.411
24 F7 52 -12.482
24 F7 53 -6.134
24 F7 54 0.214
24 F7 55 3.632
24 F7 56 3.632
24 F7 57 0.702
24 F7 58 -1.740
24 F7 59 -1.740
24 F7 60 0.702
24 F7 61 3.143
24 F7 62 4.608
24 F7 63 5.096
24 F7 64 4.120
24 F7 65 3.632
24 F7 66 3.143
24 F7 67 2.167
24 F7 68 1.678
24 F7 69 2.167
24 F7 70 3.632
24 F7 71 5.585
24 F7 72 6.561
24 F7 73 5.096
24 F7 74 2.655
24 F7 75 0.702
24 F7 76 0.702
24 F7 77 2.167
24 F7 78 5.096
24 F7 79 5.585
24 F7 80 4.120
24 F7 81 2.167
24 F7 82 0.702
24 F7 83 1.190
24 F7 84 3.143
24 F7 85 4.120
24 F7 86 3.143
24 F7 87 0.214
24 F7 88 -2.716
24 F7 89 -4.181
24 F7 90 -3.693
24 F7 91 -2.716
24 F7 92 -2.228
24 F7 93 -1.740
24 F7 94 -1.740
24 F7 95 -1.251
24 F7 96 -0.763
24 F7 97 -0.763
24 F7 98 -0.763
24 F7 99 0.214
24 F7 100 2.167
24 F7 101 4.608
24 F7 102 5.096
24 F7 103 3.632
24 F7 104 0.214
24 F7 105 -4.181
24 F7 106 -6.622
24 F7 107 -6.134
24 F7 108 -3.693
24 F7 109 -2.228
24 F7 110 -3.204
24 F7 111 -6.134
24 F7 112 -9.552
24 F7 113 -10.529
24 F7 114 -8.087
24 F7 115 -3.204
24 F7 116 1.190
24 F7 117 4.120
24 F7 118 4.120
24 F7 119 3.143
24 F7 120 1.190
24 F7 121 0.214
24 F7 122 -1.251
24 F7 123 -3.204
24 F7 124 -6.134
24 F7 125 -9.064
24 F7 126 -11.993
24 F7 127 -13.947
24 F7 128 -14.923
24 F7 129 -14.435
24 F7 130 -12.482
24 F7 131 -10.040
24 F7 132 -7.599
24 F7 133 -4.669
24 F7 134 -2.228
24 F7 135 -0.763
24 F7 136 0.214
24 F7 137 0.214
24 F7 138 -0.763
24 F7 139 -2.716
24 F7 140 -4.669
24 F7 141 -5.646
24 F7 142 -4.181
24 F7 143 -0.763
24 F7 144 3.632
24 F7 145 6.073
24 F7 146 5.096
24 F7 147 1.678
24 F7 148 -2.716
24 F7 149 -7.111
24 F7 150 -8.575
24 F7 151 -8.087
24 F7 152 -5.646
24 F7 153 -2.228
24 F7 154 1.190
24 F7 155 2.655
24 F7 156 3.143
24 F7 157 1.678
24 F7 158 0.214
24 F7 159 0.214
24 F7 160 2.655
24 F7 161 5.585
24 F7 162 8.514
24 F7 163 9.003
24 F7 164 6.073
24 F7 165 2.167
24 F7 166 -2.716
24 F7 167 -5.646
24 F7 168 -6.134
24 F7 169 -4.669
24 F7 170 -1.740
24 F7 171 0.214
24 F7 172 0.702
24 F7 173 0.702
24 F7 174 -0.275
24 F7 175 -0.275
24 F7 176 -0.275
24 F7 177 1.190
24 F7 178 3.143
24 F7 179 5.585
24 F7 180 7.050
24 F7 181 8.026
24 F7 182 8.026
24 F7 183 6.561
24 F7 184 5.585
24 F7 185 3.632
24 F7 186 2.167
24 F7 187 -1.251
24 F7 188 -5.157
24 F7 189 -9.064
24 F7 190 -11.017
24 F7 191 -9.552
24 F7 192 -5.646
24 F7 193 1.190
24 F7 194 7.538
24 F7 195 11.444
24 F7 196 12.421
24 F7 197 9.491
24 F7 198 4.608
24 F7 199 -0.763
24 F7 200 -4.181
24 F7 201 -4.181
24 F7 202 -1.251
24 F7 203 2.167
24 F7 204 3.632
24 F7 205 3.143
24 F7 206 0.702
24 F7 207 -1.251
24 F7 208 -3.204
24 F7 209 -4.181
24 F7 210 -4.669
24 F7 211 -5.646
24 F7 212 -6.622
24 F7 213 -6.622
24 F7 214 -4.669
24 F7 215 -1.251
24 F7 216 3.143
24 F7 217 6.073
24 F7 218 6.561
24 F7 219 5.096
24 F7 220 2.167
24 F7 221 -0.763
24 F7 222 -2.716
24 F7 223 -2.228
24 F7 224 -0.763
24 F7 225 0.702
24 F7 226 0.702
24 F7 227 -1.251
24 F7 228 -4.669
24 F7 229 -7.111
24 F7 230 -7.599
24 F7 231 -6.622
24 F7 232 -4.669
24 F7 233 -2.716
24 F7 234 -1.251
24 F7 235 -0.275
24 F7 236 1.190
24 F7 237 2.167
24 F7 238 1.190
24 F7 239 -1.251
24 F7 240 -4.669
24 F7 241 -7.111
24 F7 242 -7.599
24 F7 243 -6.134
24 F7 244 -5.646
24 F7 245 -5.646
24 F7 246 -7.111
24 F7 247 -8.087
24 F7 248 -7.599
24 F7 249 -6.134
24 F7 250 -4.669
24 F7 251 -4.181
24 F7 252 -6.134
24 F7 253 -9.064
24 F7 254 -12.482
24 F7 255 -13.947
# F8 chan 3
24 F8 0 7.395
24 F8 1 10.325
24 F8 2 11.790
24 F8 3 12.767
24 F8 4 11.790
24 F8 5 11.302
24 F8 6 10.325
24 F8 7 7.395
24 F8 8 3.489
24 F8 9 -0.905
24 F8 10 -4.812
24 F8 11 -6.765
24 F8 12 -5.300
24 F8 13 -2.370
24 F8 14 0.071
24 F8 15 1.048
24 F8 16 1.048
24 F8 17 0.559
24 F8 18 1.048
24 F8 19 2.024
24 F8 20 3.001
24 F8 21 2.513
24 F8 22 0.071
24 F8 23 -1.882
24 F8 24 -2.370
24 F8 25 -0.905
24 F8 26 2.024
24 F8 27 3.977
24 F8 28 3.977
24 F8 29 1.536
24 F8 30 -1.882
24 F8 31 -4.323
24 F8 32 -5.300
24 F8 33 -4.812
24 F8 34 -3.835
24 F8 35 -2.858
24 F8 36 -1.394
24 F8 37 0.559
24 F8 38 3.001
24 F8 39 4.466
24 F8 40 4.954
24 F8 41 3.489
24 F8 42 1.536
24 F8 43 -0.905
24 F8 44 -2.370
24 F8 45 -3.835
24 F8 46 -4.812
24 F8 47 -5.788
24 F8 48 -6.276
24 F8 49 -5.788
24 F8 50 -3.835
24 F8 51 -0.905
24 F8 52 2.024
24 F8 53 3.489
24 F8 54 2.513
24 F8 55 -0.417
24 F8 56 -4.323
24 F8 57 -7.253
24 F8 58 -9.206
24 F8 59 -8.718
24 F8 60 -6.276
24 F8 61 -2.858
24 F8 62 0.559
24 F8 63 3.489
24 F8 64 3.977
24 F8 65 3.489
24 F8 66 3.001
24 F8 67 2.513
24 F8 68 3.001
24 F8 69 3.001
24 F8 70 3.489
24 F8 71 4.466
24 F8 72 6.419
24 F8 73 9.349
24 F8 74 10.813
24 F8 75 10.325
24 F8 76 7.395
24 F8 77 3.489
24 F8 78 0.559
24 F8 79 -0.417
24 F8 80 0.071
24 F8 81 0.559
24 F8 82 0.559
24 F8 83 0.559
24 F8 84 1.536
24 F8 85 4.466
24 F8 86 6.419
24 F8 87 6.419
24 F8 88 3.001
24 F8 89 -1.882
24 F8 90 -7.253
24 F8 91 -10.671
24 F8 92 -11.648
24 F8 93 -11.159
24 F8 94 -10.671
24 F8 95 -9.206
24 F8 96 -7.253
24 F8 97 -4.812
24 F8 98 -0.905
24 F8 99 3.001
24 F8 100 4.954
24 F8 101 4.466
24 F8 102 2.024
24 F8 103 -1.882
24 F8 104 -6.276
24 F8 105 -9.694
24 F8 106 -11.159
24 F8 107 -10.671
24 F8 108 -9.206
24 F8 109 -8.230
24 F8 110 -8.230
24 F8 111 -8.718
24 F8 112 -9.694
24 F8 113 -9.694
24 F8 114 -8.230
24 F8 115 -5.300
24 F8 116 -2.370
24 F8 117 -0.905
24 F8 118 -0.905
24 F8 119 -1.882
24 F8 120 -2.858
24 F8 121 -2.858
24 F8 122 -3.835
24 F8 123 -4.812
24 F8 124 -7.253
24 F8 125 -10.671
24 F8 126 -13.112
24 F8 127 -14.577
24 F8 128 -14.089
24 F8 129 -12.624
24 F8 130 -10.671
24 F8 131 -8.230
24 F8 132 -5.788
24 F8 133 -3.835
24 F8 134 -2.858
24 F8 135 -2.858
24 F8 136 -2.858
24 F8 137 -3.835
24 F8 138 -3.835
24 F8 139 -3.347
24 F8 140 -2.370
24 F8 141 -2.370
24 F8 142 -2.370
24 F8 143 -2.858
24 F8 144 -3.347
24 F8 145 -3.835
24 F8 146 -3.835
24 F8 147 -3.835
24 F8 148 -4.323
24 F8 149 -5.300
24 F8 150 -6.276
24 F8 151 -6.765
24 F8 152 -5.788
24 F8 153 -3.347
24 F8 154 -0.417
24 F8 155 1.536
24 F8 156 1.536
24 F8 157 0.559
24 F8 158 -0.417
24 F8 159 0.559
24 F8 160 3.001
24 F8 161 6.419
24 F8 162 8.372
24 F8 163 7.884
24 F8 164 4.466
24 F8 165 -0.417
24 F8 166 -3.835
24 F8 167 -4.323
24 F8 168 -2.858
24 F8 169 -0.417
24 F8 170 1.536
24 F8 171 1.048
24 F8 172 -0.417
24 F8 173 -2.370
24 F8 174 -2.370
24 F8 175 -1.882
24 F8 176 -0.417
24 F8 177 1.048
24 F8 178 2.024
24 F8 179 2.513
24 F8 180 2.513
24 F8 181 2.513
24 F8 182 2.024
24 F8 183 2.024
24 F8 184 1.536
24 F8 185 1.048
24 F8 186 0.071
24 F8 187 -2.370
24 F8 188 -5.788
24 F8 189 -7.741
24 F8 190 -6.765
24 F8 191 -3.835
24 F8 192 0.559
24 F8 193 3.489
24 F8 194 4.954
24 F8 195 5.442
24 F8 196 6.907
24 F8 197 8.860
24 F8 198 9.837
24 F8 199 8.860
24 F8 200 5.442
24 F8 201 2.024
24 F8 202 0.559
24 F8 203 0.559
24 F8 204 2.024
24 F8 205 2.024
24 F8 206 0.559
24 F8 207 -1.394
24 F8 208 -2.370
24 F8 209 -1.394
24 F8 210 -0.417
24 F8 211 0.559
24 F8 212 1.048
24 F8 213 2.024
24 F8 214 3.977
24 F8 215 6.907
24 F8 216 9.837
24 F8 217 11.302
24 F8 218 11.302
24 F8 219 10.813
24 F8 220 10.325
24 F8 221 9.837
24 F8 222 9.349
24 F8 223 7.395
24 F8 224 4.466
24 F8 225 1.048
24 F8 226 -1.394
24 F8 227 -2.370
24 F8 228 -2.370
24 F8 229 -1.882
24 F8 230 -1.394
24 F8 231 -1.882
24 F8 232 -3.347
24 F8 233 -4.812
24 F8 234 -5.300
24 F8 235 -3.835
24 F8 236 0.071
24 F8 237 3.977
24 F8 238 6.907
24 F8 239 6.419
24 F8 240 3.001
24 F8 241 -1.882
24 F8 242 -6.276
24 F8 243 -8.230
24 F8 244 -9.206
24 F8 245 -10.183
24 F8 246 -11.159
24 F8 247 -10.671
24 F8 248 -8.718
24 F8 249 -4.323
24 F8 250 1.048
24 F8 251 3.489
24 F8 252 3.001
24 F8 253 -0.417
24 F8 254 -5.300
24 F8 255 -8.718
# AF1 chan 4
24 AF1 0 4.924
24 AF1 1 6.877
24 AF1 2 10.295
24 AF1 3 13.713
24 AF1 4 15.666
24 AF1 5 15.177
24 AF1 6 12.736
24 AF1 7 7.853
24 AF1 8 2.970
24 AF1 9 -1.424
24 AF1 10 -4.354
24 AF1 11 -6.795
24 AF1 12 -8.260
24 AF1 13 -8.748
24 AF1 14 -8.748
24 AF1 15 -8.748
24 AF1 16 -7.772
24 AF1 17 -6.307
24 AF1 18 -3.377
24 AF1 19 0.041
24 AF1 20 1.994
24 AF1 21 2.970
24 AF1 22 1.994
24 AF1 23 0.041
24 AF1 24 -0.936
24 AF1 25 -0.448
24 AF1 26 1.994
24 AF1 27 4.924
24 AF1 28 7.365
24 AF1 29 6.877
24 AF1 30 4.435
24 AF1 31 0.529
24 AF1 32 -2.889
24 AF1 33 -4.842
24 AF1 34 -5.330
24 AF1 35 -4.842
24 AF1 36 -3.866
24 AF1 37 -3.377
24 AF1 38 -3.377
24 AF1 39 -2.401
24 AF1 40 -0.936
24 AF1 41 1.017
24 AF1 42 1.994
24 AF1 43 1.506
24 AF1 44 0.041
24 AF1 45 -1.912
24 AF1 46 -3.866
24 AF1 47 -5.330
24 AF1 48 -6.307
24 AF1 49 -6.307
24 AF1 50 -5.819
24 AF1 51 -3.866
24 AF1 52 -0.936
24 AF1 53 1.506
24 AF1 54 2.482
24 AF1 55 1.506
24 AF1 56 -0.936
24 AF1 57 -2.889
24 AF1 58 -2.889
24 AF1 59 -0.936
24 AF1 60 1.017
24 AF1 61 1.994
24 AF1 62 1.017
24 AF1 63 -0.448
24 AF1 64 -0.936
24 AF1 65 0.041
24 AF1 66 2.970
24 AF1 67 5.900
24 AF1 68 7.365
24 AF1 69 7.365
24 AF1 70 6.877
24 AF1 71 5.900
24 AF1 72 5.412
24 AF1 73 4.924
24 AF1 74 4.924
24 AF1 75 4.435
24 AF1 76 3.947
24 AF1 77 2.970
24 AF1 78 1.994
24 AF1 79 1.506
24 AF1 80 0.529
24 AF1 81 -0.448
24 AF1 82 -0.448
24 AF1 83 -0.448
24 AF1 84 0.529
24 AF1 85 1.017
24 AF1 86 0.529
24 AF1 87 -0.936
24 AF1 88 -3.377
24 AF1 89 -5.819
24 AF1 90 -6.795
24 AF1 91 -6.307
24 AF1 92 -4.842
24 AF1 93 -3.866
24 AF1 94 -3.866
24 AF1 95 -4.354
24 AF1 96 -4.842
24 AF1 97 -3.866
24 AF1 98 -2.401
24 AF1 99 -0.936
24 AF1 100 1.017
24 AF1 101 1.506
24 AF1 102 1.994
24 AF1 103 1.506
24 AF1 104 0.041
24 AF1 105 -1.424
24 AF1 106 -3.377
24 AF1 107 -4.354
24 AF1 108 -5.330
24 AF1 109 -5.819
24 AF1 110 -6.795
24 AF1 111 -8.260
24 AF1 112 -10.213
24 AF1 113 -11.190
24 AF1 114 -10.213
24 AF1 115 -7.772
24 AF1 116 -4.842
24 AF1 117 -1.912
24 AF1 118 0.041
24 AF1 119 1.017
24 AF1 120 2.482
24 AF1 121 2.482
24 AF1 122 1.017
24 AF1 123 -2.401
24 AF1 124 -7.284
24 AF1 125 -12.166
24 AF1 126 -14.608
24 AF1 127 -15.096
24 AF1 128 -13.143
24 AF1 129 -10.701
24 AF1 130 -8.748
24 AF1 131 -7.284
24 AF1 132 -5.330
24 AF1 133 -3.377
24 AF1 134 -2.401
24 AF1 135 -1.912
24 AF1 136 -2.401
24 AF1 137 -3.377
24 AF1 138 -3.377
24 AF1 139 -2.889
24 AF1 140 -0.936
24 AF1 141 0.041
24 AF1 142 0.529
24 AF1 143 0.041
24 AF1 144 -0.936
24 AF1 145 -1.424
24 AF1 146 -1.424
24 AF1 147 -1.912
24 AF1 148 -2.401
24 AF1 149 -3.866
24 AF1 150 -5.330
24 AF1 151 -6.307
24 AF1 152 -5.819
24 AF1 153 -3.866
24 AF1 154 -1.912
24 AF1 155 0.041
24 AF1 156 1.506
24 AF1 157 2.482
24 AF1 158 3.459
24 AF1 159 4.924
24 AF1 160 7.365
24 AF1 161 8.830
24 AF1 162 8.830
24 AF1 163 6.388
24 AF1 164 1.994
24 AF1 165 -2.889
24 AF1 166 -7.284
24 AF1 167 -9.237
24 AF1 168 -9.237
24 AF1 169 -6.795
24 AF1 170 -3.866
24 AF1 171 -1.424
24 AF1 172 0.529
24 AF1 173 1.506
24 AF1 174 1.017
24 AF1 175 0.529
24 AF1 176 0.041
24 AF1 177 -0.448
24 AF1 178 0.041
24 AF1 179 1.017
24 AF1 180 2.482
24 AF1 181 4.435
24 AF1 182 6.388
24 AF1 183 7.853
24 AF1 184 8.830
24 AF1 185 9.318
24 AF1 186 8.830
24 AF1 187 6.877
24 AF1 188 3.947
24 AF1 189 0.529
24 AF1 190 -0.936
24 AF1 191 0.041
24 AF1 192 2.970
24 AF1 193 7.365
24 AF1 194 10.295
24 AF1 195 11.271
24 AF1 196 9.318
24 AF1 197 6.877
24 AF1 198 3.947
24 AF1 199 1.506
24 AF1 200 0.041
24 AF1 201 -0.448
24 AF1 202 -0.936
24 AF1 203 -0.448
24 AF1 204 0.041
24 AF1 205 1.017
24 AF1 206 1.017
24 AF1 207 1.017
24 AF1 208 0.041
24 AF1 209 -0.936
24 AF1 210 -0.936
24 AF1 211 -0.936
24 AF1 212 0.041
24 AF1 213 1.506
24 AF1 214 3.459
24 AF1 215 6.388
24 AF1 216 9.806
24 AF1 217 13.224
24 AF1 218 15.666
24 AF1 219 15.177
24 AF1 220 12.736
24 AF1 221 8.830
24 AF1 222 5.412
24 AF1 223 3.947
24 AF1 224 4.435
24 AF1 225 4.435
24 AF1 226 3.947
24 AF1 227 1.994
24 AF1 228 -0.448
24 AF1 229 -2.401
24 AF1 230 -2.889
24 AF1 231 -2.401
24 AF1 232 -1.912
24 AF1 233 -1.912
24 AF1 234 -1.912
24 AF1 235 -1.424
24 AF1 236 0.529
24 AF1 237 2.482
24 AF1 238 3.947
24 AF1 239 3.459
24 AF1 240 0.529
24 AF1 241 -2.401
24 AF1 242 -5.330
24 AF1 243 -6.795
24 AF1 244 -7.284
24 AF1 245 -8.260
24 AF1 246 -8.748
24 AF1 247 -8.260
24 AF1 248 -5.819
24 AF1 249 -3.377
24 AF1 250 -1.424
24 AF1 251 -1.912
24 AF1 252 -5.819
24 AF1 253 -10.701
24 AF1 254 -15.096
24 AF1 255 -17.537
# AF2 chan 5
24 AF2 0 4.069
24 AF2 1 6.510
24 AF2 2 9.440
24 AF2 3 12.370
24 AF2 4 14.811
24 AF2 5 15.788
24 AF2 6 14.323
24 AF2 7 10.905
24 AF2 8 5.534
24 AF2 9 0.651
24 AF2 10 -3.743
24 AF2 11 -5.697
24 AF2 12 -5.697
24 AF2 13 -5.208
24 AF2 14 -4.232
24 AF2 15 -4.232
24 AF2 16 -4.232
24 AF2 17 -3.743
24 AF2 18 -2.279
24 AF2 19 0.163
24 AF2 20 2.604
24 AF2 21 4.069
24 AF2 22 3.092
24 AF2 23 0.651
24 AF2 24 -1.302
24 AF2 25 -2.279
24 AF2 26 -0.814
24 AF2 27 1.628
24 AF2 28 4.069
24 AF2 29 5.046
24 AF2 30 3.092
24 AF2 31 0.163
24 AF2 32 -2.767
24 AF2 33 -3.743
24 AF2 34 -2.767
24 AF2 35 -1.302
24 AF2 36 0.163
24 AF2 37 0.163
24 AF2 38 -0.326
24 AF2 39 -0.326
24 AF2 40 0.163
24 AF2 41 2.116
24 AF2 42 4.069
24 AF2 43 4.069
24 AF2 44 3.092
24 AF2 45 0.651
24 AF2 46 -1.790
24 AF2 47 -3.255
24 AF2 48 -3.743
24 AF2 49 -3.255
24 AF2 50 -1.790
24 AF2 51 0.163
24 AF2 52 2.604
24 AF2 53 4.069
24 AF2 54 4.069
24 AF2 55 2.604
24 AF2 56 0.163
24 AF2 57 -1.790
24 AF2 58 -2.279
24 AF2 59 -1.302
24 AF2 60 0.163
24 AF2 61 0.651
24 AF2 62 0.163
24 AF2 63 -0.326
24 AF2 64 0.163
24 AF2 65 1.628
24 AF2 66 4.557
24 AF2 67 7.487
24 AF2 68 8.952
24 AF2 69 8.464
24 AF2 70 7.487
24 AF2 71 6.510
24 AF2 72 6.510
24 AF2 73 6.999
24 AF2 74 6.999
24 AF2 75 6.999
24 AF2 76 6.510
24 AF2 77 5.046
24 AF2 78 3.581
24 AF2 79 2.116
24 AF2 80 1.139
24 AF2 81 0.163
24 AF2 82 -0.326
24 AF2 83 0.163
24 AF2 84 1.139
24 AF2 85 2.604
24 AF2 86 2.604
24 AF2 87 1.628
24 AF2 88 -0.326
24 AF2 89 -2.767
24 AF2 90 -4.720
24 AF2 91 -5.697
24 AF2 92 -5.208
24 AF2 93 -4.720
24 AF2 94 -4.720
24 AF2 95 -5.208
24 AF2 96 -5.208
24 AF2 97 -4.720
24 AF2 98 -3.255
24 AF2 99 -0.814
24 AF2 100 1.628
24 AF2 101 3.581
24 AF2 102 3.581
24 AF2 103 2.116
24 AF2 104 -0.326
24 AF2 105 -2.279
24 AF2 106 -3.743
24 AF2 107 -4.232
24 AF2 108 -3.743
24 AF2 109 -3.743
24 AF2 110 -5.208
24 AF2 111 -6.673
24 AF2 112 -8.626
24 AF2 113 -9.115
24 AF2 114 -8.138
24 AF2 115 -6.185
24 AF2 116 -3.255
24 AF2 117 -1.790
24 AF2 118 -0.326
24 AF2 119 0.651
24 AF2 120 1.628
24 AF2 121 1.628
24 AF2 122 0.163
24 AF2 123 -2.767
24 AF2 124 -6.673
24 AF2 125 -10.579
24 AF2 126 -13.997
24 AF2 127 -14.974
24 AF2 128 -14.486
24 AF2 129 -12.533
24 AF2 130 -9.603
24 AF2 131 -6.673
24 AF2 132 -4.232
24 AF2 133 -2.279
24 AF2 134 -1.302
24 AF2 135 -1.790
24 AF2 136 -2.279
24 AF2 137 -3.255
24 AF2 138 -2.767
24 AF2 139 -1.790
24 AF2 140 -1.302
24 AF2 141 -0.814
24 AF2 142 -1.790
24 AF2 143 -2.767
24 AF2 144 -3.743
24 AF2 145 -4.232
24 AF2 146 -4.232
24 AF2 147 -4.232
24 AF2 148 -4.720
24 AF2 149 -5.208
24 AF2 150 -5.697
24 AF2 151 -5.697
24 AF2 152 -4.720
24 AF2 153 -2.767
24 AF2 154 -0.814
24 AF2 155 1.139
24 AF2 156 1.628
24 AF2 157 1.628
24 AF2 158 2.116
24 AF2 159 3.581
24 AF2 160 5.534
24 AF2 161 7.487
24 AF2 162 7.975
24 AF2 163 6.510
24 AF2 164 3.092
24 AF2 165 -1.790
24 AF2 166 -5.697
24 AF2 167 -8.138
24 AF2 168 -7.650
24 AF2 169 -5.697
24 AF2 170 -2.767
24 AF2 171 -0.326
24 AF2 172 1.139
24 AF2 173 1.628
24 AF2 174 1.139
24 AF2 175 0.651
24 AF2 176 0.651
24 AF2 177 0.651
24 AF2 178 0.163
24 AF2 179 0.163
24 AF2 180 1.139
24 AF2 181 2.116
24 AF2 182 4.069
24 AF2 183 6.510
24 AF2 184 8.464
24 AF2 185 9.440
24 AF2 186 8.952
24 AF2 187 7.487
24 AF2 188 4.557
24 AF2 189 2.116
24 AF2 190 1.628
24 AF2 191 2.116
24 AF2 192 5.534
24 AF2 193 8.464
24 AF2 194 10.417
24 AF2 195 11.393
24 AF2 196 10.417
24 AF2 197 8.952
24 AF2 198 6.999
24 AF2 199 5.046
24 AF2 200 3.581
24 AF2 201 2.116
24 AF2 202 1.628
24 AF2 203 1.628
24 AF2 204 3.092
24 AF2 205 3.581
24 AF2 206 3.581
24 AF2 207 2.116
24 AF2 208 0.163
24 AF2 209 -0.814
24 AF2 210 -1.302
24 AF2 211 0.163
24 AF2 212 1.628
24 AF2 213 3.581
24 AF2 214 6.022
24 AF2 215 8.952
24 AF2 216 12.370
24 AF2 217 14.811
24 AF2 218 16.764
24 AF2 219 16.276
24 AF2 220 14.323
24 AF2 221 11.393
24 AF2 222 8.464
24 AF2 223 6.999
24 AF2 224 6.022
24 AF2 225 4.557
24 AF2 226 3.092
24 AF2 227 0.651
24 AF2 228 -0.814
24 AF2 229 -1.302
24 AF2 230 -0.814
24 AF2 231 -0.814
24 AF2 232 -0.326
24 AF2 233 -0.814
24 AF2 234 -1.302
24 AF2 235 -0.814
24 AF2 236 1.139
24 AF2 237 3.092
24 AF2 238 4.557
24 AF2 239 3.581
24 AF2 240 0.651
24 AF2 241 -2.279
24 AF2 242 -5.208
24 AF2 243 -6.673
24 AF2 244 -7.650
24 AF2 245 -8.138
24 AF2 246 -8.138
24 AF2 247 -7.650
24 AF2 248 -5.697
24 AF2 249 -3.255
24 AF2 250 -1.790
24 AF2 251 -2.279
24 AF2 252 -5.208
24 AF2 253 -9.115
24 AF2 254 -13.509
24 AF2 255 -14.974
# FZ chan 6
24 FZ 0 1.322
24 FZ 1 2.787
24 FZ 2 5.717
24 FZ 3 8.647
24 FZ 4 11.088
24 FZ 5 12.065
24 FZ 6 10.600
24 FZ 7 8.158
24 FZ 8 4.252
24 FZ 9 0.346
24 FZ 10 -3.072
24 FZ 11 -6.002
24 FZ 12 -6.978
24 FZ 13 -7.467
24 FZ 14 -6.978
24 FZ 15 -6.490
24 FZ 16 -6.002
24 FZ 17 -5.025
24 FZ 18 -3.072
24 FZ 19 -0.631
24 FZ 20 1.322
24 FZ 21 2.787
24 FZ 22 2.299
24 FZ 23 1.322
24 FZ 24 -0.142
24 FZ 25 -1.119
24 FZ 26 -0.142
24 FZ 27 2.299
24 FZ 28 4.740
24 FZ 29 5.717
24 FZ 30 4.252
24 FZ 31 0.834
24 FZ 32 -2.096
24 FZ 33 -4.537
24 FZ 34 -4.049
24 FZ 35 -2.584
24 FZ 36 -1.119
24 FZ 37 -0.631
24 FZ 38 -0.631
24 FZ 39 -1.119
24 FZ 40 -0.631
24 FZ 41 0.834
24 FZ 42 2.299
24 FZ 43 3.276
24 FZ 44 2.299
24 FZ 45 0.346
24 FZ 46 -1.607
24 FZ 47 -3.072
24 FZ 48 -3.560
24 FZ 49 -3.072
24 FZ 50 -2.584
24 FZ 51 -1.119
24 FZ 52 0.346
24 FZ 53 1.322
24 FZ 54 1.322
24 FZ 55 0.346
24 FZ 56 -1.119
24 FZ 57 -1.607
24 FZ 58 -1.607
24 FZ 59 -0.142
24 FZ 60 1.322
24 FZ 61 1.322
24 FZ 62 0.346
24 FZ 63 -0.631
24 FZ 64 -0.631
24 FZ 65 0.834
24 FZ 66 3.276
24 FZ 67 5.229
24 FZ 68 6.694
24 FZ 69 6.694
24 FZ 70 5.229
24 FZ 71 4.252
24 FZ 72 3.764
24 FZ 73 4.252
24 FZ 74 4.740
24 FZ 75 4.740
24 FZ 76 4.252
24 FZ 77 3.276
24 FZ 78 2.299
24 FZ 79 1.811
24 FZ 80 1.322
24 FZ 81 0.834
24 FZ 82 0.346
24 FZ 83 0.346
24 FZ 84 0.834
24 FZ 85 0.834
24 FZ 86 0.834
24 FZ 87 -0.631
24 FZ 88 -2.584
24 FZ 89 -4.049
24 FZ 90 -5.025
24 FZ 91 -5.025
24 FZ 92 -4.537
24 FZ 93 -3.560
24 FZ 94 -3.560
24 FZ 95 -3.560
24 FZ 96 -3.072
24 FZ 97 -2.584
24 FZ 98 -1.119
24 FZ 99 0.346
24 FZ 100 1.322
24 FZ 101 1.811
24 FZ 102 1.322
24 FZ 103 0.834
24 FZ 104 -0.142
24 FZ 105 -1.119
24 FZ 106 -2.096
24 FZ 107 -2.584
24 FZ 108 -4.049
24 FZ 109 -4.537
24 FZ 110 -5.514
24 FZ 111 -6.002
24 FZ 112 -6.978
24 FZ 113 -6.978
24 FZ 114 -6.490
24 FZ 115 -5.025
24 FZ 116 -3.072
24 FZ 117 -1.607
24 FZ 118 -0.142
24 FZ 119 0.346
24 FZ 120 1.322
24 FZ 121 1.322
24 FZ 122 0.346
24 FZ 123 -2.096
24 FZ 124 -5.514
24 FZ 125 -7.955
24 FZ 126 -9.908
24 FZ 127 -9.908
24 FZ 128 -8.931
24 FZ 129 -7.467
24 FZ 130 -6.002
24 FZ 131 -4.537
24 FZ 132 -2.584
24 FZ 133 -1.607
24 FZ 134 -1.119
24 FZ 135 -1.119
24 FZ 136 -2.096
24 FZ 137 -2.096
24 FZ 138 -2.096
24 FZ 139 -1.119
24 FZ 140 0.346
24 FZ 141 0.834
24 FZ 142 0.346
24 FZ 143 -0.631
24 FZ 144 -2.096
24 FZ 145 -2.096
24 FZ 146 -2.096
24 FZ 147 -2.096
24 FZ 148 -2.096
24 FZ 149 -3.072
24 FZ 150 -4.049
24 FZ 151 -4.049
24 FZ 152 -3.072
24 FZ 153 -1.607
24 FZ 154 -0.142
24 FZ 155 0.834
24 FZ 156 0.834
24 FZ 157 1.322
24 FZ 158 1.811
24 FZ 159 3.276
24 FZ 160 5.229
24 FZ 161 6.694
24 FZ 162 6.694
24 FZ 163 4.740
24 FZ 164 1.322
24 FZ 165 -2.584
24 FZ 166 -5.514
24 FZ 167 -7.467
24 FZ 168 -6.978
24 FZ 169 -5.514
24 FZ 170 -3.072
24 FZ 171 -1.119
24 FZ 172 0.346
24 FZ 173 0.834
24 FZ 174 0.346
24 FZ 175 0.346
24 FZ 176 0.346
24 FZ 177 -0.142
24 FZ 178 -0.631
24 FZ 179 -0.631
24 FZ 180 -0.142
24 FZ 181 0.834
24 FZ 182 2.787
24 FZ 183 5.229
24 FZ 184 7.182
24 FZ 185 8.158
24 FZ 186 8.158
24 FZ 187 6.694
24 FZ 188 3.764
24 FZ 189 1.322
24 FZ 190 -0.142
24 FZ 191 0.346
24 FZ 192 2.299
24 FZ 193 4.740
24 FZ 194 6.205
24 FZ 195 6.694
24 FZ 196 6.205
24 FZ 197 4.740
24 FZ 198 2.787
24 FZ 199 0.834
24 FZ 200 -0.631
24 FZ 201 -1.607
24 FZ 202 -1.607
24 FZ 203 -1.119
24 FZ 204 0.346
24 FZ 205 1.322
24 FZ 206 1.811
24 FZ 207 1.322
24 FZ 208 -0.142
24 FZ 209 -1.119
24 FZ 210 -1.119
24 FZ 211 -0.631
24 FZ 212 0.346
24 FZ 213 1.811
24 FZ 214 3.276
24 FZ 215 5.229
24 FZ 216 7.670
24 FZ 217 10.111
24 FZ 218 11.576
24 FZ 219 11.088
24 FZ 220 8.647
24 FZ 221 5.717
24 FZ 222 3.276
24 FZ 223 2.299
24 FZ 224 2.299
24 FZ 225 2.787
24 FZ 226 1.811
24 FZ 227 -0.142
24 FZ 228 -2.096
24 FZ 229 -3.560
24 FZ 230 -4.049
24 FZ 231 -3.072
24 FZ 232 -2.584
24 FZ 233 -3.072
24 FZ 234 -3.072
24 FZ 235 -2.584
24 FZ 236 -1.119
24 FZ 237 1.322
24 FZ 238 2.787
24 FZ 239 2.299
24 FZ 240 0.346
24 FZ 241 -1.607
24 FZ 242 -4.049
24 FZ 243 -5.025
24 FZ 244 -5.514
24 FZ 245 -6.002
24 FZ 246 -5.514
24 FZ 247 -5.025
24 FZ 248 -3.072
24 FZ 249 -1.607
24 FZ 250 -1.119
24 FZ 251 -2.096
24 FZ 252 -5.514
24 FZ 253 -9.420
24 FZ 254 -12.838
24 FZ 255 -14.303
# F4 chan 7
24 F4 0 1.312
24 F4 1 3.265
24 F4 2 5.219
24 F4 3 8.636
24 F4 4 11.078
24 F4 5 13.031
24 F4 6 13.519
24 F4 7 11.566
24 F4 8 7.660
24 F4 9 3.265
24 F4 10 -0.641
24 F4 11 -3.082
24 F4 12 -3.571
24 F4 13 -2.594
24 F4 14 -1.617
24 F4 15 -1.617
24 F4 16 -1.617
24 F4 17 -1.617
24 F4 18 -0.641
24 F4 19 1.801
24 F4 20 4.242
24 F4 21 5.219
24 F4 22 4.730
24 F4 23 2.289
24 F4 24 -0.153
24 F4 25 -1.617
24 F4 26 -1.129
24 F4 27 0.824
24 F4 28 3.265
24 F4 29 4.242
24 F4 30 2.777
24 F4 31 0.336
24 F4 32 -2.594
24 F4 33 -3.571
24 F4 34 -2.106
24 F4 35 0.336
24 F4 36 2.289
24 F4 37 3.265
24 F4 38 2.777
24 F4 39 1.801
24 F4 40 1.801
24 F4 41 2.777
24 F4 42 3.265
24 F4 43 3.754
24 F4 44 2.777
24 F4 45 0.824
24 F4 46 -0.641
24 F4 47 -2.106
24 F4 48 -2.106
24 F4 49 -1.617
24 F4 50 -0.153
24 F4 51 1.801
24 F4 52 3.265
24 F4 53 4.242
24 F4 54 3.265
24 F4 55 0.824
24 F4 56 -1.617
24 F4 57 -3.571
24 F4 58 -3.571
24 F4 59 -1.617
24 F4 60 -0.153
24 F4 61 0.824
24 F4 62 0.824
24 F4 63 -0.153
24 F4 64 -0.153
24 F4 65 1.312
24 F4 66 3.265
24 F4 67 5.707
24 F4 68 6.683
24 F4 69 6.683
24 F4 70 5.707
24 F4 71 5.219
24 F4 72 5.219
24 F4 73 6.683
24 F4 74 7.172
24 F4 75 7.660
24 F4 76 6.683
24 F4 77 5.219
24 F4 78 3.265
24 F4 79 1.801
24 F4 80 0.336
24 F4 81 -0.153
24 F4 82 -0.153
24 F4 83 0.336
24 F4 84 1.312
24 F4 85 1.801
24 F4 86 1.801
24 F4 87 0.824
24 F4 88 -1.617
24 F4 89 -4.059
24 F4 90 -5.524
24 F4 91 -6.500
24 F4 92 -6.012
24 F4 93 -6.012
24 F4 94 -6.012
24 F4 95 -6.500
24 F4 96 -6.500
24 F4 97 -4.547
24 F4 98 -2.106
24 F4 99 0.824
24 F4 100 3.265
24 F4 101 3.754
24 F4 102 3.265
24 F4 103 1.312
24 F4 104 -1.129
24 F4 105 -3.571
24 F4 106 -5.035
24 F4 107 -6.012
24 F4 108 -5.524
24 F4 109 -5.035
24 F4 110 -5.035
24 F4 111 -6.012
24 F4 112 -6.500
24 F4 113 -6.989
24 F4 114 -6.012
24 F4 115 -4.059
24 F4 116 -2.106
24 F4 117 -1.129
24 F4 118 -0.153
24 F4 119 -0.153
24 F4 120 -0.153
24 F4 121 -0.641
24 F4 122 -1.617
24 F4 123 -3.571
24 F4 124 -6.989
24 F4 125 -9.430
24 F4 126 -11.871
24 F4 127 -12.848
24 F4 128 -11.871
24 F4 129 -10.406
24 F4 130 -7.965
24 F4 131 -6.012
24 F4 132 -3.571
24 F4 133 -1.617
24 F4 134 -1.129
24 F4 135 -1.129
24 F4 136 -1.617
24 F4 137 -2.594
24 F4 138 -2.594
24 F4 139 -2.594
24 F4 140 -2.106
24 F4 141 -2.594
24 F4 142 -3.571
24 F4 143 -4.059
24 F4 144 -4.059
24 F4 145 -4.059
24 F4 146 -3.571
24 F4 147 -3.571
24 F4 148 -4.547
24 F4 149 -6.012
24 F4 150 -6.500
24 F4 151 -6.500
24 F4 152 -4.547
24 F4 153 -2.594
24 F4 154 -0.641
24 F4 155 0.336
24 F4 156 0.336
24 F4 157 -0.153
24 F4 158 -0.153
24 F4 159 0.824
24 F4 160 2.289
24 F4 161 4.242
24 F4 162 4.730
24 F4 163 3.754
24 F4 164 0.824
24 F4 165 -2.594
24 F4 166 -6.500
24 F4 167 -8.453
24 F4 168 -8.942
24 F4 169 -7.477
24 F4 170 -4.547
24 F4 171 -2.594
24 F4 172 -1.129
24 F4 173 -1.129
24 F4 174 -1.129
24 F4 175 -1.129
24 F4 176 -1.617
24 F4 177 -1.617
24 F4 178 -2.106
24 F4 179 -2.594
24 F4 180 -3.082
24 F4 181 -2.594
24 F4 182 -1.129
24 F4 183 1.312
24 F4 184 3.265
24 F4 185 4.730
24 F4 186 4.242
24 F4 187 3.265
24 F4 188 0.824
24 F4 189 -1.129
24 F4 190 -2.106
24 F4 191 -0.641
24 F4 192 1.312
24 F4 193 4.242
24 F4 194 5.707
24 F4 195 6.195
24 F4 196 5.219
24 F4 197 4.242
24 F4 198 2.777
24 F4 199 0.824
24 F4 200 -0.641
24 F4 201 -2.106
24 F4 202 -2.594
24 F4 203 -2.594
24 F4 204 -1.617
24 F4 205 -0.641
24 F4 206 -1.129
24 F4 207 -1.617
24 F4 208 -3.082
24 F4 209 -3.571
24 F4 210 -3.082
24 F4 211 -1.617
24 F4 212 -0.153
24 F4 213 1.801
24 F4 214 3.754
24 F4 215 6.195
24 F4 216 8.636
24 F4 217 11.078
24 F4 218 12.054
24 F4 219 11.078
24 F4 220 9.125
24 F4 221 6.683
24 F4 222 4.730
24 F4 223 3.265
24 F4 224 2.289
24 F4 225 0.824
24 F4 226 -1.129
24 F4 227 -3.571
24 F4 228 -5.035
24 F4 229 -5.524
24 F4 230 -4.547
24 F4 231 -4.059
24 F4 232 -3.571
24 F4 233 -4.059
24 F4 234 -4.059
24 F4 235 -3.571
24 F4 236 -2.106
24 F4 237 -0.153
24 F4 238 0.336
24 F4 239 -0.153
24 F4 240 -2.594
24 F4 241 -5.524
24 F4 242 -7.965
24 F4 243 -9.430
24 F4 244 -9.918
24 F4 245 -9.918
24 F4 246 -9.918
24 F4 247 -8.942
24 F4 248 -7.477
24 F4 249 -5.524
24 F4 250 -3.571
24 F4 251 -3.082
24 F4 252 -5.035
24 F4 253 -7.477
24 F4 254 -11.383
24 F4 255 -13.336
# F3 chan 8
24 F3 0 4.384
24 F3 1 6.337
24 F3 2 8.291
24 F3 3 11.220
24 F3 4 12.685
24 F3 5 12.197
24 F3 6 9.755
24 F3 7 6.337
24 F3 8 2.431
24 F3 9 -0.987
24 F3 10 -4.405
24 F3 11 -6.846
24 F3 12 -8.799
24 F3 13 -9.288
24 F3 14 -9.288
24 F3 15 -8.799
24 F3 16 -7.823
24 F3 17 -5.870
24 F3 18 -3.428
24 F3 19 -0.987
24 F3 20 1.455
24 F3 21 2.431
24 F3 22 2.431
24 F3 23 1.455
24 F3 24 0.478
24 F3 25 0.966
24 F3 26 2.920
24 F3 27 5.849
24 F3 28 7.802
24 F3 29 7.314
24 F3 30 4.873
24 F3 31 0.966
24 F3 32 -3.428
24 F3 33 -6.358
24 F3 34 -7.334
24 F3 35 -7.334
24 F3 36 -6.358
24 F3 37 -5.381
24 F3 38 -4.405
24 F3 39 -2.940
24 F3 40 -1.963
24 F3 41 -0.987
24 F3 42 -0.010
24 F3 43 0.478
24 F3 44 -0.010
24 F3 45 -1.475
24 F3 46 -2.940
24 F3 47 -5.381
24 F3 48 -7.334
24 F3 49 -8.311
24 F3 50 -7.823
24 F3 51 -6.358
24 F3 52 -3.428
24 F3 53 -0.498
24 F3 54 0.966
24 F3 55 0.966
24 F3 56 -0.010
24 F3 57 -1.475
24 F3 58 -1.475
24 F3 59 -0.010
24 F3 60 1.943
24 F3 61 2.920
24 F3 62 2.920
24 F3 63 1.455
24 F3 64 0.478
24 F3 65 0.478
24 F3 66 1.455
24 F3 67 3.408
24 F3 68 4.873
24 F3 69 5.361
24 F3 70 4.873
24 F3 71 4.384
24 F3 72 3.408
24 F3 73 2.920
24 F3 74 1.943
24 F3 75 1.455
24 F3 76 1.455
24 F3 77 1.455
24 F3 78 1.943
24 F3 79 1.943
24 F3 80 1.455
24 F3 81 1.455
24 F3 82 0.478
24 F3 83 0.478
24 F3 84 0.478
24 F3 85 -0.010
24 F3 86 -0.498
24 F3 87 -1.475
24 F3 88 -3.428
24 F3 89 -4.405
24 F3 90 -5.381
24 F3 91 -4.893
24 F3 92 -3.916
24 F3 93 -3.428
24 F3 94 -3.428
24 F3 95 -3.428
24 F3 96 -3.428
24 F3 97 -2.452
24 F3 98 -0.987
24 F3 99 -0.010
24 F3 100 0.966
24 F3 101 1.455
24 F3 102 1.455
24 F3 103 1.943
24 F3 104 1.455
24 F3 105 0.966
24 F3 106 -0.498
24 F3 107 -1.963
24 F3 108 -3.428
24 F3 109 -3.916
24 F3 110 -4.405
24 F3 111 -4.893
24 F3 112 -5.870
24 F3 113 -7.334
24 F3 114 -7.334
24 F3 115 -6.846
24 F3 116 -4.405
24 F3 117 -2.452
24 F3 118 -0.498
24 F3 119 0.966
24 F3 120 2.431
24 F3 121 3.408
24 F3 122 2.920
24 F3 123 0.478
24 F3 124 -3.428
24 F3 125 -7.823
24 F3 126 -10.752
24 F3 127 -12.217
24 F3 128 -11.729
24 F3 129 -9.288
24 F3 130 -7.334
24 F3 131 -5.381
24 F3 132 -3.428
24 F3 133 -1.963
24 F3 134 -0.987
24 F3 135 -0.498
24 F3 136 -1.475
24 F3 137 -2.452
24 F3 138 -2.940
24 F3 139 -2.940
24 F3 140 -1.475
24 F3 141 -0.010
24 F3 142 0.966
24 F3 143 0.966
24 F3 144 -0.010
24 F3 145 -0.498
24 F3 146 -0.987
24 F3 147 -0.987
24 F3 148 -1.475
24 F3 149 -2.940
24 F3 150 -4.893
24 F3 151 -6.358
24 F3 152 -6.358
24 F3 153 -4.893
24 F3 154 -2.452
24 F3 155 -0.498
24 F3 156 1.455
24 F3 157 2.431
24 F3 158 3.408
24 F3 159 4.873
24 F3 160 6.826
24 F3 161 7.802
24 F3 162 6.826
24 F3 163 3.896
24 F3 164 -0.010
24 F3 165 -3.916
24 F3 166 -6.358
24 F3 167 -7.823
24 F3 168 -6.846
24 F3 169 -5.870
24 F3 170 -4.405
24 F3 171 -2.940
24 F3 172 -1.963
24 F3 173 -0.987
24 F3 174 -0.987
24 F3 175 -0.987
24 F3 176 -1.475
24 F3 177 -1.475
24 F3 178 -0.987
24 F3 179 0.966
24 F3 180 2.431
24 F3 181 4.384
24 F3 182 6.337
24 F3 183 7.314
24 F3 184 7.802
24 F3 185 7.802
24 F3 186 6.826
24 F3 187 4.384
24 F3 188 1.455
24 F3 189 -1.475
24 F3 190 -2.940
24 F3 191 -1.963
24 F3 192 0.966
24 F3 193 5.361
24 F3 194 8.291
24 F3 195 9.755
24 F3 196 7.802
24 F3 197 4.384
24 F3 198 0.966
24 F3 199 -1.475
24 F3 200 -1.963
24 F3 201 -0.987
24 F3 202 -0.010
24 F3 203 0.966
24 F3 204 1.455
24 F3 205 1.943
24 F3 206 1.455
24 F3 207 0.966
24 F3 208 0.478
24 F3 209 -0.498
24 F3 210 -1.963
24 F3 211 -2.940
24 F3 212 -2.940
24 F3 213 -2.452
24 F3 214 -0.987
24 F3 215 1.455
24 F3 216 3.896
24 F3 217 6.826
24 F3 218 8.779
24 F3 219 9.267
24 F3 220 7.802
24 F3 221 5.361
24 F3 222 2.431
24 F3 223 0.478
24 F3 224 -0.010
24 F3 225 0.478
24 F3 226 0.478
24 F3 227 -0.498
24 F3 228 -2.452
24 F3 229 -4.405
24 F3 230 -4.893
24 F3 231 -4.893
24 F3 232 -3.916
24 F3 233 -3.428
24 F3 234 -3.428
24 F3 235 -2.940
24 F3 236 -1.475
24 F3 237 0.478
24 F3 238 2.431
24 F3 239 2.920
24 F3 240 1.943
24 F3 241 -0.010
24 F3 242 -1.475
24 F3 243 -2.452
24 F3 244 -2.940
24 F3 245 -3.916
24 F3 246 -4.893
24 F3 247 -5.381
24 F3 248 -4.405
24 F3 249 -2.452
24 F3 250 -0.498
24 F3 251 0.478
24 F3 252 -1.475
24 F3 253 -4.893
24 F3 254 -8.799
24 F3 255 -11.729
# FC6 chan 9
24 FC6 0 5.025
24 FC6 1 6.490
24 FC6 2 6.978
24 FC6 3 6.978
24 FC6 4 6.978
24 FC6 5 6.978
24 FC6 6 6.490
24 FC6 7 4.537
24 FC6 8 1.607
24 FC6 9 -1.322
24 FC6 10 -3.276
24 FC6 11 -3.764
24 FC6 12 -2.299
24 FC6 13 -0.346
24 FC6 14 1.607
24 FC6 15 2.096
24 FC6 16 1.607
24 FC6 17 1.607
24 FC6 18 1.607
24 FC6 19 2.584
24 FC6 20 3.560
24 FC6 21 4.049
24 FC6 22 3.072
24 FC6 23 1.119
24 FC6 24 -0.834
24 FC6 25 -1.811
24 FC6 26 -1.811
24 FC6 27 -0.834
24 FC6 28 0.142
24 FC6 29 -0.346
24 FC6 30 -1.322
24 FC6 31 -2.787
24 FC6 32 -3.764
24 FC6 33 -2.787
24 FC6 34 -0.834
24 FC6 35 2.096
24 FC6 36 4.049
24 FC6 37 4.537
24 FC6 38 4.049
24 FC6 39 3.072
24 FC6 40 2.096
24 FC6 41 1.119
24 FC6 42 0.142
24 FC6 43 -1.322
24 FC6 44 -2.299
24 FC6 45 -2.787
24 FC6 46 -3.276
24 FC6 47 -3.276
24 FC6 48 -3.276
24 FC6 49 -3.276
24 FC6 50 -2.787
24 FC6 51 -1.811
24 FC6 52 0.142
24 FC6 53 1.119
24 FC6 54 1.119
24 FC6 55 -0.346
24 FC6 56 -3.276
24 FC6 57 -5.717
24 FC6 58 -6.694
24 FC6 59 -5.229
24 FC6 60 -2.787
24 FC6 61 -0.346
24 FC6 62 1.607
24 FC6 63 2.096
24 FC6 64 2.584
24 FC6 65 2.096
24 FC6 66 2.096
24 FC6 67 2.096
24 FC6 68 1.607
24 FC6 69 1.607
24 FC6 70 2.096
24 FC6 71 3.560
24 FC6 72 5.514
24 FC6 73 6.978
24 FC6 74 7.467
24 FC6 75 6.490
24 FC6 76 4.537
24 FC6 77 3.072
24 FC6 78 1.607
24 FC6 79 0.631
24 FC6 80 0.142
24 FC6 81 -0.346
24 FC6 82 0.142
24 FC6 83 1.119
24 FC6 84 2.584
24 FC6 85 3.560
24 FC6 86 3.072
24 FC6 87 1.607
24 FC6 88 -0.834
24 FC6 89 -3.764
24 FC6 90 -5.717
24 FC6 91 -7.182
24 FC6 92 -7.670
24 FC6 93 -7.670
24 FC6 94 -6.694
24 FC6 95 -5.717
24 FC6 96 -4.252
24 FC6 97 -2.787
24 FC6 98 -0.834
24 FC6 99 1.119
24 FC6 100 3.072
24 FC6 101 4.049
24 FC6 102 3.560
24 FC6 103 1.119
24 FC6 104 -2.787
24 FC6 105 -6.694
24 FC6 106 -9.135
24 FC6 107 -9.135
24 FC6 108 -7.670
24 FC6 109 -5.229
24 FC6 110 -4.252
24 FC6 111 -3.764
24 FC6 112 -4.740
24 FC6 113 -5.229
24 FC6 114 -4.252
24 FC6 115 -2.787
24 FC6 116 -0.834
24 FC6 117 -0.346
24 FC6 118 0.142
24 FC6 119 -0.346
24 FC6 120 -0.834
24 FC6 121 -1.811
24 FC6 122 -2.299
24 FC6 123 -3.276
24 FC6 124 -4.740
24 FC6 125 -6.694
24 FC6 126 -8.158
24 FC6 127 -9.623
24 FC6 128 -9.623
24 FC6 129 -9.623
24 FC6 130 -7.670
24 FC6 131 -5.717
24 FC6 132 -3.764
24 FC6 133 -1.811
24 FC6 134 -0.834
24 FC6 135 -0.346
24 FC6 136 -0.834
24 FC6 137 -1.811
24 FC6 138 -2.299
24 FC6 139 -2.299
24 FC6 140 -2.299
24 FC6 141 -1.811
24 FC6 142 -1.811
24 FC6 143 -1.811
24 FC6 144 -1.811
24 FC6 145 -1.322
24 FC6 146 -1.322
24 FC6 147 -1.811
24 FC6 148 -2.787
24 FC6 149 -4.252
24 FC6 150 -5.229
24 FC6 151 -4.740
24 FC6 152 -3.764
24 FC6 153 -1.322
24 FC6 154 0.142
24 FC6 155 1.119
24 FC6 156 0.631
24 FC6 157 -0.346
24 FC6 158 -0.834
24 FC6 159 -0.346
24 FC6 160 1.607
24 FC6 161 4.049
24 FC6 162 6.002
24 FC6 163 6.002
24 FC6 164 4.049
24 FC6 165 1.119
24 FC6 166 -1.811
24 FC6 167 -3.764
24 FC6 168 -4.252
24 FC6 169 -3.764
24 FC6 170 -2.787
24 FC6 171 -2.299
24 FC6 172 -2.299
24 FC6 173 -1.811
24 FC6 174 -0.834
24 FC6 175 1.119
24 FC6 176 2.584
24 FC6 177 3.560
24 FC6 178 3.560
24 FC6 179 2.584
24 FC6 180 1.119
24 FC6 181 0.142
24 FC6 182 -0.834
24 FC6 183 -0.834
24 FC6 184 -0.346
24 FC6 185 0.142
24 FC6 186 0.142
24 FC6 187 -0.346
24 FC6 188 -2.299
24 FC6 189 -4.252
24 FC6 190 -4.740
24 FC6 191 -4.252
24 FC6 192 -1.811
24 FC6 193 1.119
24 FC6 194 3.560
24 FC6 195 5.025
24 FC6 196 5.514
24 FC6 197 6.002
24 FC6 198 5.514
24 FC6 199 4.537
24 FC6 200 3.072
24 FC6 201 0.631
24 FC6 202 -1.322
24 FC6 203 -2.787
24 FC6 204 -2.787
24 FC6 205 -2.299
24 FC6 206 -2.299
24 FC6 207 -2.299
24 FC6 208 -2.787
24 FC6 209 -3.276
24 FC6 210 -2.787
24 FC6 211 -1.811
24 FC6 212 -0.346
24 FC6 213 1.119
24 FC6 214 2.584
24 FC6 215 4.049
24 FC6 216 5.025
24 FC6 217 5.514
24 FC6 218 6.490
24 FC6 219 6.490
24 FC6 220 6.490
24 FC6 221 6.490
24 FC6 222 5.514
24 FC6 223 3.560
24 FC6 224 1.119
24 FC6 225 -1.322
24 FC6 226 -3.276
24 FC6 227 -3.764
24 FC6 228 -3.764
24 FC6 229 -3.276
24 FC6 230 -3.276
24 FC6 231 -3.764
24 FC6 232 -4.740
24 FC6 233 -5.229
24 FC6 234 -4.740
24 FC6 235 -3.276
24 FC6 236 -0.834
24 FC6 237 1.607
24 FC6 238 3.072
24 FC6 239 2.584
24 FC6 240 1.119
24 FC6 241 -0.834
24 FC6 242 -3.276
24 FC6 243 -5.229
24 FC6 244 -7.182
24 FC6 245 -9.135
24 FC6 246 -9.623
24 FC6 247 -9.623
24 FC6 248 -8.158
24 FC6 249 -4.740
24 FC6 250 -0.834
24 FC6 251 2.584
24 FC6 252 4.049
24 FC6 253 3.560
24 FC6 254 0.631
24 FC6 255 -1.811
# FC5 chan 10
24 FC5 0 8.535
24 FC5 1 9.511
24 FC5 2 10.000
24 FC5 3 10.000
24 FC5 4 9.023
24 FC5 5 6.582
24 FC5 6 3.164
24 FC5 7 0.234
24 FC5 8 -3.184
24 FC5 9 -5.625
24 FC5 10 -7.579
24 FC5 11 -9.043
24 FC5 12 -9.532
24 FC5 13 -9.043
24 FC5 14 -8.555
24 FC5 15 -7.579
24 FC5 16 -5.625
24 FC5 17 -4.649
24 FC5 18 -2.696
24 FC5 19 -1.231
24 FC5 20 0.234
24 FC5 21 0.722
24 FC5 22 0.722
24 FC5 23 0.722
24 FC5 24 1.211
24 FC5 25 2.675
24 FC5 26 4.140
24 FC5 27 5.117
24 FC5 28 4.628
24 FC5 29 1.699
24 FC5 30 -1.719
24 FC5 31 -5.137
24 FC5 32 -8.067
24 FC5 33 -10.020
24 FC5 34 -10.508
24 FC5 35 -10.997
24 FC5 36 -10.020
24 FC5 37 -8.067
24 FC5 38 -5.625
24 FC5 39 -3.672
24 FC5 40 -3.184
24 FC5 41 -4.649
24 FC5 42 -7.090
24 FC5 43 -8.067
24 FC5 44 -8.067
24 FC5 45 -7.090
24 FC5 46 -6.114
24 FC5 47 -6.114
24 FC5 48 -8.067
24 FC5 49 -10.020
24 FC5 50 -11.485
24 FC5 51 -10.997
24 FC5 52 -8.555
24 FC5 53 -5.625
24 FC5 54 -2.696
24 FC5 55 -0.743
24 FC5 56 0.722
24 FC5 57 0.722
24 FC5 58 1.211
24 FC5 59 2.187
24 FC5 60 3.164
24 FC5 61 3.164
24 FC5 62 3.164
24 FC5 63 2.675
24 FC5 64 2.187
24 FC5 65 2.675
24 FC5 66 3.164
24 FC5 67 4.140
24 FC5 68 3.652
24 FC5 69 2.675
24 FC5 70 1.699
24 FC5 71 1.211
24 FC5 72 0.722
24 FC5 73 0.722
24 FC5 74 0.722
24 FC5 75 0.722
24 FC5 76 0.722
24 FC5 77 1.211
24 FC5 78 2.187
24 FC5 79 3.164
24 FC5 80 3.652
24 FC5 81 2.675
24 FC5 82 1.699
24 FC5 83 0.722
24 FC5 84 0.234
24 FC5 85 0.234
24 FC5 86 0.234
24 FC5 87 -0.743
24 FC5 88 -1.231
24 FC5 89 -1.719
24 FC5 90 -1.231
24 FC5 91 -0.254
24 FC5 92 -0.254
24 FC5 93 -0.254
24 FC5 94 -1.719
24 FC5 95 -2.696
24 FC5 96 -3.184
24 FC5 97 -2.207
24 FC5 98 -1.231
24 FC5 99 -0.743
24 FC5 100 0.234
24 FC5 101 0.722
24 FC5 102 1.699
24 FC5 103 1.699
24 FC5 104 0.722
24 FC5 105 -0.254
24 FC5 106 -1.719
24 FC5 107 -1.719
24 FC5 108 -1.231
24 FC5 109 -0.254
24 FC5 110 0.234
24 FC5 111 -0.743
24 FC5 112 -3.184
24 FC5 113 -5.625
24 FC5 114 -6.602
24 FC5 115 -6.114
24 FC5 116 -4.649
24 FC5 117 -2.207
24 FC5 118 0.234
24 FC5 119 2.187
24 FC5 120 4.140
24 FC5 121 5.117
24 FC5 122 4.628
24 FC5 123 3.164
24 FC5 124 -0.254
24 FC5 125 -4.649
24 FC5 126 -9.043
24 FC5 127 -11.973
24 FC5 128 -12.950
24 FC5 129 -11.973
24 FC5 130 -9.532
24 FC5 131 -5.625
24 FC5 132 -1.719
24 FC5 133 0.722
24 FC5 134 2.675
24 FC5 135 2.187
24 FC5 136 1.211
24 FC5 137 -0.254
24 FC5 138 -1.719
24 FC5 139 -2.696
24 FC5 140 -2.207
24 FC5 141 -1.231
24 FC5 142 -0.254
24 FC5 143 0.722
24 FC5 144 1.211
24 FC5 145 0.722
24 FC5 146 1.211
24 FC5 147 1.211
24 FC5 148 1.211
24 FC5 149 0.234
24 FC5 150 -2.207
24 FC5 151 -4.649
24 FC5 152 -5.625
24 FC5 153 -5.137
24 FC5 154 -2.696
24 FC5 155 -0.254
24 FC5 156 1.211
24 FC5 157 1.211
24 FC5 158 0.722
24 FC5 159 1.211
24 FC5 160 2.675
24 FC5 161 4.140
24 FC5 162 4.628
24 FC5 163 2.187
24 FC5 164 -1.231
24 FC5 165 -3.672
24 FC5 166 -4.649
24 FC5 167 -3.184
24 FC5 168 -0.743
24 FC5 169 0.234
24 FC5 170 -0.254
24 FC5 171 -1.231
24 FC5 172 -2.207
24 FC5 173 -3.184
24 FC5 174 -3.184
24 FC5 175 -3.672
24 FC5 176 -4.161
24 FC5 177 -3.672
24 FC5 178 -2.207
24 FC5 179 -0.254
24 FC5 180 2.187
24 FC5 181 4.628
24 FC5 182 5.605
24 FC5 183 5.605
24 FC5 184 4.140
24 FC5 185 2.187
24 FC5 186 -1.231
24 FC5 187 -5.137
24 FC5 188 -8.067
24 FC5 189 -10.020
24 FC5 190 -9.532
24 FC5 191 -7.090
24 FC5 192 -3.184
24 FC5 193 1.211
24 FC5 194 4.628
24 FC5 195 6.582
24 FC5 196 5.605
24 FC5 197 3.164
24 FC5 198 0.234
24 FC5 199 -2.696
24 FC5 200 -4.161
24 FC5 201 -3.184
24 FC5 202 -1.231
24 FC5 203 1.211
24 FC5 204 2.675
24 FC5 205 3.164
24 FC5 206 1.699
24 FC5 207 0.234
24 FC5 208 -1.719
24 FC5 209 -3.184
24 FC5 210 -4.649
24 FC5 211 -6.602
24 FC5 212 -7.090
24 FC5 213 -7.090
24 FC5 214 -6.602
24 FC5 215 -5.625
24 FC5 216 -4.649
24 FC5 217 -3.184
24 FC5 218 -1.719
24 FC5 219 0.234
24 FC5 220 1.211
24 FC5 221 1.699
24 FC5 222 1.211
24 FC5 223 -1.231
24 FC5 224 -3.184
24 FC5 225 -4.649
24 FC5 226 -5.137
24 FC5 227 -5.137
24 FC5 228 -4.649
24 FC5 229 -4.161
24 FC5 230 -3.672
24 FC5 231 -3.672
24 FC5 232 -3.672
24 FC5 233 -4.161
24 FC5 234 -5.137
24 FC5 235 -5.137
24 FC5 236 -4.161
24 FC5 237 -2.696
24 FC5 238 -1.231
24 FC5 239 -0.743
24 FC5 240 -2.207
24 FC5 241 -3.184
24 FC5 242 -4.161
24 FC5 243 -3.672
24 FC5 244 -2.696
24 FC5 245 -3.184
24 FC5 246 -4.649
24 FC5 247 -6.602
24 FC5 248 -7.579
24 FC5 249 -7.090
24 FC5 250 -6.114
24 FC5 251 -4.649
24 FC5 252 -4.649
24 FC5 253 -4.649
24 FC5 254 -4.649
24 FC5 255 -4.161
# FC2 chan 11
24 FC2 0 -0.458
24 FC2 1 -0.458
24 FC2 2 1.007
24 FC2 3 2.960
24 FC2 4 5.402
24 FC2 5 6.866
24 FC2 6 7.355
24 FC2 7 6.378
24 FC2 8 4.425
24 FC2 9 2.472
24 FC2 10 0.519
24 FC2 11 -0.458
24 FC2 12 -0.946
24 FC2 13 0.031
24 FC2 14 0.519
24 FC2 15 0.519
24 FC2 16 0.031
24 FC2 17 0.031
24 FC2 18 0.519
24 FC2 19 1.984
24 FC2 20 3.448
24 FC2 21 4.913
24 FC2 22 4.425
24 FC2 23 2.960
24 FC2 24 0.519
24 FC2 25 -0.946
24 FC2 26 -0.946
24 FC2 27 0.519
24 FC2 28 2.472
24 FC2 29 2.960
24 FC2 30 2.472
24 FC2 31 0.519
24 FC2 32 -1.434
24 FC2 33 -1.434
24 FC2 34 0.031
24 FC2 35 1.984
24 FC2 36 3.448
24 FC2 37 3.448
24 FC2 38 1.984
24 FC2 39 0.519
24 FC2 40 0.031
24 FC2 41 0.519
24 FC2 42 1.984
24 FC2 43 2.472
24 FC2 44 2.472
24 FC2 45 1.007
24 FC2 46 -0.458
24 FC2 47 -1.434
24 FC2 48 -1.434
24 FC2 49 0.031
24 FC2 50 1.495
24 FC2 51 2.960
24 FC2 52 2.960
24 FC2 53 2.472
24 FC2 54 1.007
24 FC2 55 0.519
24 FC2 56 0.519
24 FC2 57 0.519
24 FC2 58 1.007
24 FC2 59 1.007
24 FC2 60 0.519
24 FC2 61 -0.458
24 FC2 62 -0.946
24 FC2 63 -0.458
24 FC2 64 0.519
24 FC2 65 1.495
24 FC2 66 2.960
24 FC2 67 2.960
24 FC2 68 2.960
24 FC2 69 2.472
24 FC2 70 2.472
24 FC2 71 2.472
24 FC2 72 3.448
24 FC2 73 4.425
24 FC2 74 4.913
24 FC2 75 4.425
24 FC2 76 3.448
24 FC2 77 2.472
24 FC2 78 1.495
24 FC2 79 1.007
24 FC2 80 1.495
24 FC2 81 1.007
24 FC2 82 0.519
24 FC2 83 0.031
24 FC2 84 -0.458
24 FC2 85 -0.458
24 FC2 86 -0.458
24 FC2 87 0.519
24 FC2 88 0.519
24 FC2 89 -0.458
24 FC2 90 -1.434
24 FC2 91 -1.923
24 FC2 92 -2.411
24 FC2 93 -2.411
24 FC2 94 -2.411
24 FC2 95 -2.899
24 FC2 96 -2.411
24 FC2 97 -1.923
24 FC2 98 0.031
24 FC2 99 1.984
24 FC2 100 3.448
24 FC2 101 2.960
24 FC2 102 1.984
24 FC2 103 0.031
24 FC2 104 -1.434
24 FC2 105 -1.923
24 FC2 106 -2.411
24 FC2 107 -2.411
24 FC2 108 -2.899
24 FC2 109 -3.876
24 FC2 110 -4.364
24 FC2 111 -4.364
24 FC2 112 -3.387
24 FC2 113 -2.411
24 FC2 114 -1.434
24 FC2 115 -0.946
24 FC2 116 -1.434
24 FC2 117 -1.923
24 FC2 118 -1.923
24 FC2 119 -1.923
24 FC2 120 -0.946
24 FC2 121 -0.946
24 FC2 122 -1.434
24 FC2 123 -2.899
24 FC2 124 -4.852
24 FC2 125 -6.317
24 FC2 126 -7.294
24 FC2 127 -6.805
24 FC2 128 -5.829
24 FC2 129 -5.341
24 FC2 130 -4.852
24 FC2 131 -4.852
24 FC2 132 -4.364
24 FC2 133 -3.876
24 FC2 134 -2.899
24 FC2 135 -1.923
24 FC2 136 -1.434
24 FC2 137 -1.923
24 FC2 138 -2.411
24 FC2 139 -2.411
24 FC2 140 -2.411
24 FC2 141 -1.923
24 FC2 142 -1.923
24 FC2 143 -2.411
24 FC2 144 -3.387
24 FC2 145 -4.852
24 FC2 146 -5.341
24 FC2 147 -5.341
24 FC2 148 -4.364
24 FC2 149 -3.387
24 FC2 150 -2.411
24 FC2 151 -1.923
24 FC2 152 -1.923
24 FC2 153 -1.434
24 FC2 154 -1.434
24 FC2 155 -0.946
24 FC2 156 -0.946
24 FC2 157 -0.946
24 FC2 158 -0.946
24 FC2 159 -0.458
24 FC2 160 0.031
24 FC2 161 1.007
24 FC2 162 1.984
24 FC2 163 1.984
24 FC2 164 1.007
24 FC2 165 -1.434
24 FC2 166 -3.387
24 FC2 167 -5.341
24 FC2 168 -5.341
24 FC2 169 -4.364
24 FC2 170 -2.899
24 FC2 171 -1.923
24 FC2 172 -1.434
24 FC2 173 -1.434
24 FC2 174 -0.458
24 FC2 175 0.519
24 FC2 176 1.495
24 FC2 177 1.495
24 FC2 178 0.519
24 FC2 179 -1.434
24 FC2 180 -2.899
24 FC2 181 -3.387
24 FC2 182 -2.411
24 FC2 183 -0.458
24 FC2 184 1.495
24 FC2 185 2.472
24 FC2 186 1.984
24 FC2 187 1.007
24 FC2 188 0.031
24 FC2 189 -0.458
24 FC2 190 -0.458
24 FC2 191 -0.458
24 FC2 192 0.031
24 FC2 193 1.007
24 FC2 194 1.495
24 FC2 195 1.984
24 FC2 196 2.472
24 FC2 197 2.472
24 FC2 198 1.495
24 FC2 199 0.031
24 FC2 200 -1.923
24 FC2 201 -3.387
24 FC2 202 -3.876
24 FC2 203 -3.387
24 FC2 204 -1.923
24 FC2 205 -0.458
24 FC2 206 0.519
24 FC2 207 0.519
24 FC2 208 -0.458
24 FC2 209 -0.946
24 FC2 210 -0.458
24 FC2 211 0.031
24 FC2 212 1.007
24 FC2 213 2.472
24 FC2 214 3.937
24 FC2 215 4.913
24 FC2 216 5.402
24 FC2 217 5.890
24 FC2 218 5.890
24 FC2 219 5.890
24 FC2 220 4.913
24 FC2 221 3.937
24 FC2 222 2.472
24 FC2 223 1.495
24 FC2 224 1.007
24 FC2 225 1.495
24 FC2 226 1.495
24 FC2 227 0.519
24 FC2 228 -0.458
24 FC2 229 -1.434
24 FC2 230 -1.923
24 FC2 231 -1.434
24 FC2 232 -0.458
24 FC2 233 0.519
24 FC2 234 1.007
24 FC2 235 1.007
24 FC2 236 1.007
24 FC2 237 1.495
24 FC2 238 1.984
24 FC2 239 2.960
24 FC2 240 2.472
24 FC2 241 1.007
24 FC2 242 -0.946
24 FC2 243 -2.411
24 FC2 244 -3.387
24 FC2 245 -2.899
24 FC2 246 -2.411
24 FC2 247 -1.434
24 FC2 248 -0.946
24 FC2 249 -0.458
24 FC2 250 1.007
24 FC2 251 1.495
24 FC2 252 1.495
24 FC2 253 -0.458
24 FC2 254 -2.899
24 FC2 255 -4.852
# FC1 chan 12
24 FC1 0 1.577
24 FC1 1 2.553
24 FC1 2 4.506
24 FC1 3 5.971
24 FC1 4 6.948
24 FC1 5 6.948
24 FC1 6 5.971
24 FC1 7 4.506
24 FC1 8 2.065
24 FC1 9 0.112
24 FC1 10 -1.841
24 FC1 11 -3.306
24 FC1 12 -4.771
24 FC1 13 -5.259
24 FC1 14 -5.259
24 FC1 15 -5.259
24 FC1 16 -4.283
24 FC1 17 -3.306
24 FC1 18 -2.330
24 FC1 19 -0.865
24 FC1 20 0.600
24 FC1 21 1.577
24 FC1 22 2.065
24 FC1 23 1.577
24 FC1 24 1.577
24 FC1 25 1.577
24 FC1 26 2.065
24 FC1 27 2.553
24 FC1 28 3.530
24 FC1 29 3.530
24 FC1 30 2.065
24 FC1 31 0.112
24 FC1 32 -1.353
24 FC1 33 -2.818
24 FC1 34 -3.306
24 FC1 35 -2.818
24 FC1 36 -2.330
24 FC1 37 -1.841
24 FC1 38 -1.353
24 FC1 39 -1.353
24 FC1 40 -0.865
24 FC1 41 -0.376
24 FC1 42 0.600
24 FC1 43 1.088
24 FC1 44 1.088
24 FC1 45 1.088
24 FC1 46 0.112
24 FC1 47 -0.865
24 FC1 48 -1.841
24 FC1 49 -2.818
24 FC1 50 -2.818
24 FC1 51 -2.330
24 FC1 52 -1.353
24 FC1 53 0.112
24 FC1 54 0.600
24 FC1 55 0.600
24 FC1 56 0.600
24 FC1 57 0.112
24 FC1 58 0.112
24 FC1 59 1.088
24 FC1 60 1.577
24 FC1 61 1.577
24 FC1 62 1.088
24 FC1 63 0.600
24 FC1 64 0.112
24 FC1 65 0.600
24 FC1 66 1.088
24 FC1 67 2.065
24 FC1 68 2.553
24 FC1 69 2.553
24 FC1 70 2.553
24 FC1 71 2.065
24 FC1 72 1.577
24 FC1 73 1.577
24 FC1 74 1.088
24 FC1 75 1.088
24 FC1 76 1.088
24 FC1 77 1.577
24 FC1 78 1.577
24 FC1 79 1.577
24 FC1 80 1.577
24 FC1 81 1.088
24 FC1 82 0.600
24 FC1 83 0.600
24 FC1 84 0.600
24 FC1 85 0.600
24 FC1 86 0.112
24 FC1 87 -0.376
24 FC1 88 -1.353
24 FC1 89 -2.330
24 FC1 90 -2.330
24 FC1 91 -1.841
24 FC1 92 -1.353
24 FC1 93 -1.353
24 FC1 94 -1.353
24 FC1 95 -1.353
24 FC1 96 -0.865
24 FC1 97 -0.865
24 FC1 98 -0.376
24 FC1 99 -0.376
24 FC1 100 0.112
24 FC1 101 0.112
24 FC1 102 0.600
24 FC1 103 1.088
24 FC1 104 1.088
24 FC1 105 0.600
24 FC1 106 0.112
24 FC1 107 -0.865
24 FC1 108 -1.353
24 FC1 109 -1.841
24 FC1 110 -2.330
24 FC1 111 -2.330
24 FC1 112 -2.818
24 FC1 113 -3.306
24 FC1 114 -3.306
24 FC1 115 -3.306
24 FC1 116 -2.818
24 FC1 117 -1.841
24 FC1 118 -0.865
24 FC1 119 0.600
24 FC1 120 1.577
24 FC1 121 2.553
24 FC1 122 2.065
24 FC1 123 0.600
24 FC1 124 -1.353
24 FC1 125 -3.306
24 FC1 126 -4.771
24 FC1 127 -5.259
24 FC1 128 -5.259
24 FC1 129 -4.283
24 FC1 130 -2.818
24 FC1 131 -1.841
24 FC1 132 -0.865
24 FC1 133 -0.376
24 FC1 134 0.112
24 FC1 135 0.112
24 FC1 136 -0.376
24 FC1 137 -0.865
24 FC1 138 -1.353
24 FC1 139 -0.865
24 FC1 140 0.112
24 FC1 141 0.600
24 FC1 142 1.088
24 FC1 143 1.088
24 FC1 144 0.600
24 FC1 145 0.600
24 FC1 146 0.112
24 FC1 147 -0.376
24 FC1 148 -0.865
24 FC1 149 -1.841
24 FC1 150 -2.330
24 FC1 151 -2.818
24 FC1 152 -2.818
24 FC1 153 -2.330
24 FC1 154 -1.353
24 FC1 155 -0.376
24 FC1 156 0.112
24 FC1 157 0.600
24 FC1 158 1.577
24 FC1 159 2.553
24 FC1 160 3.530
24 FC1 161 4.018
24 FC1 162 3.530
24 FC1 163 2.065
24 FC1 164 0.112
24 FC1 165 -1.353
24 FC1 166 -2.330
24 FC1 167 -2.818
24 FC1 168 -2.818
24 FC1 169 -2.330
24 FC1 170 -1.841
24 FC1 171 -1.353
24 FC1 172 -0.865
24 FC1 173 -0.865
24 FC1 174 -0.865
24 FC1 175 -0.865
24 FC1 176 -0.865
24 FC1 177 -1.353
24 FC1 178 -1.353
24 FC1 179 -0.865
24 FC1 180 0.112
24 FC1 181 1.088
24 FC1 182 2.553
24 FC1 183 4.018
24 FC1 184 4.995
24 FC1 185 5.483
24 FC1 186 4.506
24 FC1 187 3.042
24 FC1 188 0.600
24 FC1 189 -1.353
24 FC1 190 -2.330
24 FC1 191 -1.841
24 FC1 192 -0.376
24 FC1 193 1.577
24 FC1 194 3.042
24 FC1 195 4.018
24 FC1 196 4.018
24 FC1 197 3.042
24 FC1 198 1.577
24 FC1 199 0.112
24 FC1 200 -0.865
24 FC1 201 -0.865
24 FC1 202 0.112
24 FC1 203 1.088
24 FC1 204 2.065
24 FC1 205 2.553
24 FC1 206 2.553
24 FC1 207 2.065
24 FC1 208 1.577
24 FC1 209 0.600
24 FC1 210 -0.376
24 FC1 211 -0.865
24 FC1 212 -1.353
24 FC1 213 -0.865
24 FC1 214 -0.865
24 FC1 215 0.600
24 FC1 216 2.065
24 FC1 217 3.530
24 FC1 218 4.506
24 FC1 219 4.506
24 FC1 220 4.018
24 FC1 221 3.042
24 FC1 222 2.065
24 FC1 223 1.577
24 FC1 224 1.577
24 FC1 225 2.065
24 FC1 226 2.065
24 FC1 227 1.088
24 FC1 228 0.112
24 FC1 229 -0.865
24 FC1 230 -1.353
24 FC1 231 -1.353
24 FC1 232 -1.353
24 FC1 233 -1.353
24 FC1 234 -1.353
24 FC1 235 -0.865
24 FC1 236 -0.376
24 FC1 237 1.577
24 FC1 238 3.042
24 FC1 239 3.530
24 FC1 240 3.042
24 FC1 241 2.065
24 FC1 242 1.088
24 FC1 243 0.112
24 FC1 244 -0.376
24 FC1 245 -0.376
24 FC1 246 -0.376
24 FC1 247 0.112
24 FC1 248 1.088
24 FC1 249 2.065
24 FC1 250 2.553
24 FC1 251 1.577
24 FC1 252 -0.376
24 FC1 253 -2.818
24 FC1 254 -4.771
24 FC1 255 -5.747
# T8 chan 13
24 T8 0 9.867
24 T8 1 11.332
24 T8 2 11.332
24 T8 3 9.867
24 T8 4 7.426
24 T8 5 4.496
24 T8 6 2.543
24 T8 7 0.590
24 T8 8 -2.340
24 T8 9 -4.781
24 T8 10 -7.222
24 T8 11 -7.222
24 T8 12 -5.269
24 T8 13 -1.363
24 T8 14 2.055
24 T8 15 4.008
24 T8 16 4.008
24 T8 17 3.031
24 T8 18 1.567
24 T8 19 0.590
24 T8 20 0.590
24 T8 21 0.102
24 T8 22 -0.387
24 T8 23 -1.363
24 T8 24 -1.851
24 T8 25 -0.875
24 T8 26 0.102
24 T8 27 0.590
24 T8 28 0.102
24 T8 29 -1.363
24 T8 30 -3.805
24 T8 31 -5.269
24 T8 32 -4.781
24 T8 33 -2.340
24 T8 34 1.078
24 T8 35 3.520
24 T8 36 4.496
24 T8 37 4.985
24 T8 38 4.496
24 T8 39 4.008
24 T8 40 2.055
24 T8 41 0.102
24 T8 42 -2.828
24 T8 43 -5.758
24 T8 44 -7.222
24 T8 45 -7.222
24 T8 46 -6.246
24 T8 47 -5.269
24 T8 48 -4.781
24 T8 49 -4.781
24 T8 50 -5.269
24 T8 51 -4.781
24 T8 52 -3.316
24 T8 53 -1.363
24 T8 54 -0.875
24 T8 55 -1.851
24 T8 56 -4.293
24 T8 57 -6.246
24 T8 58 -7.222
24 T8 59 -6.246
24 T8 60 -3.805
24 T8 61 -0.875
24 T8 62 1.567
24 T8 63 3.031
24 T8 64 4.008
24 T8 65 4.008
24 T8 66 2.055
24 T8 67 0.102
24 T8 68 -1.851
24 T8 69 -2.340
24 T8 70 -0.875
24 T8 71 1.567
24 T8 72 4.496
24 T8 73 6.449
24 T8 74 6.449
24 T8 75 4.008
24 T8 76 1.567
24 T8 77 -0.387
24 T8 78 -1.363
24 T8 79 -1.363
24 T8 80 -0.875
24 T8 81 -0.387
24 T8 82 1.078
24 T8 83 2.055
24 T8 84 4.008
24 T8 85 4.496
24 T8 86 4.008
24 T8 87 2.543
24 T8 88 0.102
24 T8 89 -2.828
24 T8 90 -4.781
24 T8 91 -6.246
24 T8 92 -6.734
24 T8 93 -6.246
24 T8 94 -5.269
24 T8 95 -3.805
24 T8 96 -2.340
24 T8 97 -1.363
24 T8 98 -0.387
24 T8 99 0.590
24 T8 100 1.567
24 T8 101 2.055
24 T8 102 1.078
24 T8 103 -1.851
24 T8 104 -6.246
24 T8 105 -9.664
24 T8 106 -11.129
24 T8 107 -10.152
24 T8 108 -7.222
24 T8 109 -4.293
24 T8 110 -3.316
24 T8 111 -4.293
24 T8 112 -5.758
24 T8 113 -6.734
24 T8 114 -5.758
24 T8 115 -3.316
24 T8 116 -1.363
24 T8 117 0.102
24 T8 118 0.102
24 T8 119 -0.875
24 T8 120 -1.363
24 T8 121 -1.363
24 T8 122 -1.363
24 T8 123 -1.851
24 T8 124 -2.828
24 T8 125 -4.293
24 T8 126 -6.246
24 T8 127 -8.199
24 T8 128 -9.176
24 T8 129 -9.664
24 T8 130 -8.199
24 T8 131 -5.758
24 T8 132 -3.316
24 T8 133 -0.875
24 T8 134 -0.387
24 T8 135 -0.875
24 T8 136 -2.340
24 T8 137 -3.316
24 T8 138 -3.805
24 T8 139 -3.316
24 T8 140 -2.340
24 T8 141 -0.875
24 T8 142 -0.387
24 T8 143 -0.387
24 T8 144 -0.875
24 T8 145 -0.875
24 T8 146 -0.387
24 T8 147 0.102
24 T8 148 0.102
24 T8 149 -0.387
24 T8 150 -1.851
24 T8 151 -2.828
24 T8 152 -3.316
24 T8 153 -2.828
24 T8 154 -1.363
24 T8 155 -0.875
24 T8 156 -0.875
24 T8 157 -1.363
24 T8 158 -1.363
24 T8 159 -0.875
24 T8 160 1.078
24 T8 161 3.520
24 T8 162 5.473
24 T8 163 5.473
24 T8 164 4.496
24 T8 165 2.055
24 T8 166 0.102
24 T8 167 -1.363
24 T8 168 -2.828
24 T8 169 -2.828
24 T8 170 -2.828
24 T8 171 -2.828
24 T8 172 -2.340
24 T8 173 -0.875
24 T8 174 1.567
24 T8 175 4.008
24 T8 176 5.961
24 T8 177 6.938
24 T8 178 6.938
24 T8 179 5.961
24 T8 180 4.496
24 T8 181 2.543
24 T8 182 0.102
24 T8 183 -1.851
24 T8 184 -2.828
24 T8 185 -2.828
24 T8 186 -3.316
24 T8 187 -3.316
24 T8 188 -4.293
24 T8 189 -5.269
24 T8 190 -5.758
24 T8 191 -4.781
24 T8 192 -2.340
24 T8 193 0.590
24 T8 194 3.031
24 T8 195 4.985
24 T8 196 5.961
24 T8 197 6.449
24 T8 198 5.961
24 T8 199 4.496
24 T8 200 2.543
24 T8 201 0.102
24 T8 202 -1.851
24 T8 203 -2.828
24 T8 204 -3.316
24 T8 205 -2.340
24 T8 206 -1.363
24 T8 207 -0.875
24 T8 208 -1.363
24 T8 209 -1.851
24 T8 210 -2.340
24 T8 211 -2.828
24 T8 212 -1.363
24 T8 213 -0.387
24 T8 214 2.055
24 T8 215 3.520
24 T8 216 4.008
24 T8 217 4.008
24 T8 218 4.008
24 T8 219 4.496
24 T8 220 5.473
24 T8 221 6.938
24 T8 222 6.938
24 T8 223 5.473
24 T8 224 3.031
24 T8 225 0.102
24 T8 226 -1.363
24 T8 227 -1.363
24 T8 228 -0.875
24 T8 229 -1.363
24 T8 230 -2.828
24 T8 231 -5.758
24 T8 232 -7.711
24 T8 233 -8.687
24 T8 234 -7.222
24 T8 235 -3.805
24 T8 236 0.102
24 T8 237 3.031
24 T8 238 5.473
24 T8 239 5.473
24 T8 240 4.496
24 T8 241 3.031
24 T8 242 1.078
24 T8 243 -0.875
24 T8 244 -3.316
24 T8 245 -5.758
24 T8 246 -7.711
24 T8 247 -9.176
24 T8 248 -8.199
24 T8 249 -4.781
24 T8 250 0.102
24 T8 251 4.985
24 T8 252 7.426
24 T8 253 7.426
24 T8 254 4.985
24 T8 255 2.543
# T7 chan 14
24 T7 0 9.827
24 T7 1 12.268
24 T7 2 12.268
24 T7 3 10.803
24 T7 4 8.362
24 T7 5 6.409
24 T7 6 3.967
24 T7 7 1.038
24 T7 8 -3.357
24 T7 9 -8.240
24 T7 10 -13.123
24 T7 11 -16.052
24 T7 12 -16.541
24 T7 13 -15.076
24 T7 14 -11.658
24 T7 15 -6.775
24 T7 16 -2.380
24 T7 17 1.526
24 T7 18 3.479
24 T7 19 2.991
24 T7 20 1.038
24 T7 21 -1.892
24 T7 22 -3.845
24 T7 23 -3.845
24 T7 24 -1.892
24 T7 25 0.549
24 T7 26 3.479
24 T7 27 5.920
24 T7 28 7.385
24 T7 29 5.920
24 T7 30 2.014
24 T7 31 -4.333
24 T7 32 -10.193
24 T7 33 -14.099
24 T7 34 -14.587
24 T7 35 -14.099
24 T7 36 -13.123
24 T7 37 -12.634
24 T7 38 -11.658
24 T7 39 -9.705
24 T7 40 -6.775
24 T7 41 -4.822
24 T7 42 -5.798
24 T7 43 -9.705
24 T7 44 -13.611
24 T7 45 -15.076
24 T7 46 -13.123
24 T7 47 -10.681
24 T7 48 -9.216
24 T7 49 -11.169
24 T7 50 -14.587
24 T7 51 -16.052
24 T7 52 -13.611
24 T7 53 -8.240
24 T7 54 -2.380
24 T7 55 0.061
24 T7 56 -0.916
24 T7 57 -3.357
24 T7 58 -3.357
24 T7 59 0.061
24 T7 60 5.432
24 T7 61 9.338
24 T7 62 10.315
24 T7 63 7.385
24 T7 64 3.967
24 T7 65 2.502
24 T7 66 2.991
24 T7 67 3.967
24 T7 68 2.991
24 T7 69 0.549
24 T7 70 -2.380
24 T7 71 -2.380
24 T7 72 -0.427
24 T7 73 2.991
24 T7 74 3.479
24 T7 75 0.549
24 T7 76 -3.357
24 T7 77 -5.310
24 T7 78 -3.845
24 T7 79 1.038
24 T7 80 6.409
24 T7 81 8.362
24 T7 82 7.385
24 T7 83 4.456
24 T7 84 1.526
24 T7 85 0.061
24 T7 86 -1.404
24 T7 87 -2.869
24 T7 88 -4.333
24 T7 89 -4.333
24 T7 90 -1.892
24 T7 91 2.991
24 T7 92 6.409
24 T7 93 6.409
24 T7 94 2.991
24 T7 95 -1.892
24 T7 96 -4.822
24 T7 97 -4.333
24 T7 98 -2.380
24 T7 99 -0.916
24 T7 100 -1.404
24 T7 101 -2.380
24 T7 102 -1.404
24 T7 103 2.014
24 T7 104 6.409
24 T7 105 7.874
24 T7 106 5.920
24 T7 107 1.526
24 T7 108 -1.404
24 T7 109 -1.892
24 T7 110 -0.427
24 T7 111 0.061
24 T7 112 -2.380
24 T7 113 -5.798
24 T7 114 -8.240
24 T7 115 -6.287
24 T7 116 -1.404
24 T7 117 3.479
24 T7 118 5.920
24 T7 119 5.432
24 T7 120 3.967
24 T7 121 2.991
24 T7 122 2.991
24 T7 123 2.014
24 T7 124 -0.916
24 T7 125 -5.798
24 T7 126 -10.193
24 T7 127 -12.634
24 T7 128 -12.146
24 T7 129 -9.705
24 T7 130 -6.287
24 T7 131 -2.869
24 T7 132 0.061
24 T7 133 2.014
24 T7 134 2.991
24 T7 135 2.014
24 T7 136 0.061
24 T7 137 -1.404
24 T7 138 -1.404
24 T7 139 -0.427
24 T7 140 0.061
24 T7 141 -0.427
24 T7 142 -1.892
24 T7 143 -2.869
24 T7 144 -2.380
24 T7 145 -0.916
24 T7 146 1.526
24 T7 147 2.502
24 T7 148 1.038
24 T7 149 -1.404
24 T7 150 -3.357
24 T7 151 -3.357
24 T7 152 -1.892
24 T7 153 0.061
24 T7 154 1.038
24 T7 155 -0.427
24 T7 156 -2.869
24 T7 157 -5.310
24 T7 158 -5.798
24 T7 159 -4.333
24 T7 160 -2.380
24 T7 161 -0.427
24 T7 162 1.038
24 T7 163 1.038
24 T7 164 1.526
24 T7 165 1.526
24 T7 166 2.014
24 T7 167 1.526
24 T7 168 -0.427
24 T7 169 -2.380
24 T7 170 -3.357
24 T7 171 -3.357
24 T7 172 -1.404
24 T7 173 0.061
24 T7 174 0.549
24 T7 175 -0.427
24 T7 176 -2.869
24 T7 177 -4.333
24 T7 178 -3.357
24 T7 179 -0.427
24 T7 180 2.991
24 T7 181 5.432
24 T7 182 4.944
24 T7 183 2.014
24 T7 184 -2.380
24 T7 185 -5.798
24 T7 186 -8.240
24 T7 187 -8.240
24 T7 188 -7.751
24 T7 189 -8.728
24 T7 190 -9.705
24 T7 191 -9.705
24 T7 192 -8.240
24 T7 193 -3.845
24 T7 194 1.038
24 T7 195 3.967
24 T7 196 4.456
24 T7 197 2.014
24 T7 198 -0.916
24 T7 199 -3.357
24 T7 200 -3.357
24 T7 201 -1.404
24 T7 202 0.549
24 T7 203 1.526
24 T7 204 2.014
24 T7 205 1.526
24 T7 206 0.061
24 T7 207 -0.916
24 T7 208 -2.869
24 T7 209 -4.822
24 T7 210 -6.287
24 T7 211 -7.263
24 T7 212 -7.751
24 T7 213 -7.263
24 T7 214 -6.775
24 T7 215 -5.798
24 T7 216 -5.310
24 T7 217 -5.310
24 T7 218 -5.798
24 T7 219 -5.798
24 T7 220 -5.310
24 T7 221 -3.357
24 T7 222 -1.892
24 T7 223 -0.427
24 T7 224 -1.404
24 T7 225 -3.845
24 T7 226 -6.775
24 T7 227 -8.240
24 T7 228 -6.775
24 T7 229 -3.845
24 T7 230 -1.404
24 T7 231 -0.916
24 T7 232 -2.380
24 T7 233 -3.845
24 T7 234 -3.357
24 T7 235 -1.404
24 T7 236 1.038
24 T7 237 2.014
24 T7 238 0.061
24 T7 239 -2.869
24 T7 240 -6.287
24 T7 241 -8.240
24 T7 242 -8.240
24 T7 243 -7.751
24 T7 244 -6.775
24 T7 245 -5.798
24 T7 246 -3.845
24 T7 247 -1.892
24 T7 248 -0.916
24 T7 249 -1.892
24 T7 250 -4.822
24 T7 251 -8.240
24 T7 252 -10.193
24 T7 253 -8.240
24 T7 254 -4.822
24 T7 255 -2.380
# CZ chan 15
24 CZ 0 14.425
24 CZ 1 17.843
24 CZ 2 18.331
24 CZ 3 16.378
24 CZ 4 13.936
24 CZ 5 11.007
24 CZ 6 7.589
24 CZ 7 1.729
24 CZ 8 -5.595
24 CZ 9 -12.431
24 CZ 10 -16.337
24 CZ 11 -15.849
24 CZ 12 -12.431
24 CZ 13 -7.060
24 CZ 14 -3.642
24 CZ 15 -2.665
24 CZ 16 -3.153
24 CZ 17 -3.642
24 CZ 18 -3.153
24 CZ 19 -2.177
24 CZ 20 -1.689
24 CZ 21 -3.153
24 CZ 22 -6.083
24 CZ 23 -8.036
24 CZ 24 -6.571
24 CZ 25 -2.665
24 CZ 26 2.218
24 CZ 27 5.147
24 CZ 28 4.171
24 CZ 29 -0.224
24 CZ 30 -5.595
24 CZ 31 -9.501
24 CZ 32 -11.454
24 CZ 33 -11.454
24 CZ 34 -10.478
24 CZ 35 -9.989
24 CZ 36 -8.525
24 CZ 37 -6.571
24 CZ 38 -3.642
24 CZ 39 -1.200
24 CZ 40 -0.712
24 CZ 41 -2.177
24 CZ 42 -6.083
24 CZ 43 -10.478
24 CZ 44 -13.407
24 CZ 45 -14.384
24 CZ 46 -13.896
24 CZ 47 -12.919
24 CZ 48 -12.919
24 CZ 49 -13.407
24 CZ 50 -13.896
24 CZ 51 -12.919
24 CZ 52 -9.989
24 CZ 53 -5.107
24 CZ 54 -1.689
24 CZ 55 -0.712
24 CZ 56 -2.665
24 CZ 57 -7.060
24 CZ 58 -11.454
24 CZ 59 -13.896
24 CZ 60 -13.896
24 CZ 61 -11.943
24 CZ 62 -8.036
24 CZ 63 -3.642
24 CZ 64 0.264
24 CZ 65 3.194
24 CZ 66 3.682
24 CZ 67 2.706
24 CZ 68 0.264
24 CZ 69 -0.224
24 CZ 70 1.729
24 CZ 71 5.636
24 CZ 72 9.542
24 CZ 73 10.030
24 CZ 74 7.100
24 CZ 75 2.706
24 CZ 76 -0.712
24 CZ 77 -1.200
24 CZ 78 0.264
24 CZ 79 3.194
24 CZ 80 4.171
24 CZ 81 4.171
24 CZ 82 3.194
24 CZ 83 3.194
24 CZ 84 4.171
24 CZ 85 5.636
24 CZ 86 6.612
24 CZ 87 6.612
24 CZ 88 4.659
24 CZ 89 2.218
24 CZ 90 -1.200
24 CZ 91 -3.642
24 CZ 92 -5.107
24 CZ 93 -5.107
24 CZ 94 -3.642
24 CZ 95 -2.177
24 CZ 96 -2.177
24 CZ 97 -3.153
24 CZ 98 -4.130
24 CZ 99 -4.130
24 CZ 100 -1.200
24 CZ 101 2.218
24 CZ 102 4.659
24 CZ 103 3.194
24 CZ 104 -1.200
24 CZ 105 -7.548
24 CZ 106 -11.943
24 CZ 107 -12.431
24 CZ 108 -8.525
24 CZ 109 -4.618
24 CZ 110 -2.177
24 CZ 111 -4.130
24 CZ 112 -8.525
24 CZ 113 -12.919
24 CZ 114 -14.872
24 CZ 115 -14.384
24 CZ 116 -11.943
24 CZ 117 -9.013
24 CZ 118 -6.571
24 CZ 119 -5.107
24 CZ 120 -3.642
24 CZ 121 -3.153
24 CZ 122 -4.618
24 CZ 123 -7.548
24 CZ 124 -11.454
24 CZ 125 -15.361
24 CZ 126 -17.802
24 CZ 127 -19.267
24 CZ 128 -20.243
24 CZ 129 -20.243
24 CZ 130 -20.243
24 CZ 131 -18.778
24 CZ 132 -15.849
24 CZ 133 -12.431
24 CZ 134 -9.989
24 CZ 135 -9.501
24 CZ 136 -9.989
24 CZ 137 -11.454
24 CZ 138 -11.454
24 CZ 139 -9.501
24 CZ 140 -6.083
24 CZ 141 -4.130
24 CZ 142 -3.153
24 CZ 143 -4.130
24 CZ 144 -4.618
24 CZ 145 -5.107
24 CZ 146 -5.107
24 CZ 147 -6.571
24 CZ 148 -9.501
24 CZ 149 -12.431
24 CZ 150 -14.384
24 CZ 151 -12.919
24 CZ 152 -9.501
24 CZ 153 -4.618
24 CZ 154 -0.224
24 CZ 155 1.241
24 CZ 156 0.264
24 CZ 157 -2.177
24 CZ 158 -4.130
24 CZ 159 -3.642
24 CZ 160 -0.224
24 CZ 161 4.659
24 CZ 162 8.565
24 CZ 163 9.054
24 CZ 164 7.100
24 CZ 165 3.194
24 CZ 166 0.753
24 CZ 167 0.264
24 CZ 168 2.218
24 CZ 169 4.171
24 CZ 170 5.147
24 CZ 171 4.171
24 CZ 172 2.218
24 CZ 173 0.753
24 CZ 174 0.753
24 CZ 175 1.729
24 CZ 176 3.194
24 CZ 177 4.171
24 CZ 178 5.147
24 CZ 179 7.589
24 CZ 180 10.030
24 CZ 181 11.983
24 CZ 182 11.983
24 CZ 183 9.054
24 CZ 184 4.171
24 CZ 185 -0.712
24 CZ 186 -5.107
24 CZ 187 -8.525
24 CZ 188 -10.478
24 CZ 189 -12.431
24 CZ 190 -14.384
24 CZ 191 -14.872
24 CZ 192 -13.407
24 CZ 193 -9.501
24 CZ 194 -3.153
24 CZ 195 2.706
24 CZ 196 7.100
24 CZ 197 8.565
24 CZ 198 7.100
24 CZ 199 4.171
24 CZ 200 1.729
24 CZ 201 -0.224
24 CZ 202 -0.224
24 CZ 203 -1.200
24 CZ 204 -2.665
24 CZ 205 -4.618
24 CZ 206 -7.060
24 CZ 207 -7.548
24 CZ 208 -6.083
24 CZ 209 -3.153
24 CZ 210 -0.712
24 CZ 211 0.264
24 CZ 212 0.264
24 CZ 213 -0.712
24 CZ 214 -0.224
24 CZ 215 1.241
24 CZ 216 2.706
24 CZ 217 4.171
24 CZ 218 4.171
24 CZ 219 3.682
24 CZ 220 3.194
24 CZ 221 3.682
24 CZ 222 4.659
24 CZ 223 4.659
24 CZ 224 4.171
24 CZ 225 2.218
24 CZ 226 0.753
24 CZ 227 -1.200
24 CZ 228 -2.665
24 CZ 229 -3.153
24 CZ 230 -3.642
24 CZ 231 -3.642
24 CZ 232 -4.130
24 CZ 233 -4.618
24 CZ 234 -4.618
24 CZ 235 -2.665
24 CZ 236 0.753
24 CZ 237 4.659
24 CZ 238 7.100
24 CZ 239 6.612
24 CZ 240 2.706
24 CZ 241 -3.642
24 CZ 242 -8.525
24 CZ 243 -10.478
24 CZ 244 -9.501
24 CZ 245 -8.036
24 CZ 246 -7.548
24 CZ 247 -9.013
24 CZ 248 -10.478
24 CZ 249 -10.478
24 CZ 250 -9.013
24 CZ 251 -7.548
24 CZ 252 -8.036
24 CZ 253 -10.966
24 CZ 254 -14.384
24 CZ 255 -16.337
# C3 chan 16
24 C3 0 3.682
24 C3 1 4.171
24 C3 2 4.171
24 C3 3 4.171
24 C3 4 3.194
24 C3 5 1.729
24 C3 6 0.264
24 C3 7 -1.200
24 C3 8 -2.177
24 C3 9 -3.153
24 C3 10 -3.642
24 C3 11 -4.618
24 C3 12 -5.107
24 C3 13 -5.107
24 C3 14 -5.107
24 C3 15 -4.618
24 C3 16 -4.130
24 C3 17 -3.642
24 C3 18 -3.153
24 C3 19 -2.177
24 C3 20 -1.200
24 C3 21 -0.224
24 C3 22 0.264
24 C3 23 1.241
24 C3 24 2.706
24 C3 25 3.682
24 C3 26 4.171
24 C3 27 4.171
24 C3 28 2.218
24 C3 29 -0.224
24 C3 30 -3.153
24 C3 31 -5.107
24 C3 32 -6.083
24 C3 33 -7.060
24 C3 34 -7.060
24 C3 35 -7.548
24 C3 36 -7.548
24 C3 37 -6.571
24 C3 38 -5.595
24 C3 39 -4.130
24 C3 40 -3.642
24 C3 41 -4.130
24 C3 42 -5.107
24 C3 43 -6.083
24 C3 44 -5.595
24 C3 45 -4.618
24 C3 46 -3.153
24 C3 47 -2.665
24 C3 48 -3.642
24 C3 49 -5.107
24 C3 50 -7.548
24 C3 51 -8.036
24 C3 52 -7.548
24 C3 53 -5.595
24 C3 54 -3.153
24 C3 55 -1.200
24 C3 56 0.264
24 C3 57 0.753
24 C3 58 1.241
24 C3 59 2.218
24 C3 60 3.194
24 C3 61 3.682
24 C3 62 3.194
24 C3 63 2.706
24 C3 64 2.218
24 C3 65 2.218
24 C3 66 2.218
24 C3 67 2.706
24 C3 68 2.218
24 C3 69 1.729
24 C3 70 0.264
24 C3 71 -0.712
24 C3 72 -1.200
24 C3 73 -1.689
24 C3 74 -2.177
24 C3 75 -2.177
24 C3 76 -1.689
24 C3 77 -0.712
24 C3 78 0.753
24 C3 79 1.729
24 C3 80 1.729
24 C3 81 1.729
24 C3 82 1.241
24 C3 83 0.753
24 C3 84 0.264
24 C3 85 0.264
24 C3 86 -0.224
24 C3 87 -0.712
24 C3 88 -1.200
24 C3 89 -0.224
24 C3 90 0.264
24 C3 91 1.241
24 C3 92 1.729
24 C3 93 1.241
24 C3 94 -0.224
24 C3 95 -1.689
24 C3 96 -2.665
24 C3 97 -3.153
24 C3 98 -3.153
24 C3 99 -3.153
24 C3 100 -2.665
24 C3 101 -1.689
24 C3 102 -0.224
24 C3 103 1.241
24 C3 104 2.218
24 C3 105 2.706
24 C3 106 2.218
24 C3 107 2.218
24 C3 108 1.729
24 C3 109 1.241
24 C3 110 0.264
24 C3 111 -0.712
24 C3 112 -3.153
24 C3 113 -4.618
24 C3 114 -5.595
24 C3 115 -5.107
24 C3 116 -3.642
24 C3 117 -2.177
24 C3 118 -0.224
24 C3 119 1.241
24 C3 120 2.218
24 C3 121 2.706
24 C3 122 2.218
24 C3 123 1.729
24 C3 124 0.264
24 C3 125 -1.200
24 C3 126 -3.153
24 C3 127 -4.618
24 C3 128 -5.595
24 C3 129 -5.107
24 C3 130 -3.642
24 C3 131 -1.689
24 C3 132 0.753
24 C3 133 1.729
24 C3 134 2.218
24 C3 135 1.241
24 C3 136 -0.224
24 C3 137 -1.689
24 C3 138 -2.665
24 C3 139 -3.153
24 C3 140 -2.665
24 C3 141 -2.177
24 C3 142 -0.712
24 C3 143 0.753
24 C3 144 1.729
24 C3 145 2.706
24 C3 146 2.706
24 C3 147 2.706
24 C3 148 1.729
24 C3 149 -0.224
24 C3 150 -2.177
24 C3 151 -4.130
24 C3 152 -5.107
24 C3 153 -5.107
24 C3 154 -4.130
24 C3 155 -2.665
24 C3 156 -1.689
24 C3 157 -1.689
24 C3 158 -1.689
24 C3 159 -1.200
24 C3 160 -0.712
24 C3 161 -0.224
24 C3 162 -0.224
24 C3 163 -1.200
24 C3 164 -1.200
24 C3 165 -1.200
24 C3 166 -0.224
24 C3 167 0.264
24 C3 168 1.241
24 C3 169 0.753
24 C3 170 -0.712
24 C3 171 -2.177
24 C3 172 -3.642
24 C3 173 -4.618
24 C3 174 -5.595
24 C3 175 -5.595
24 C3 176 -5.107
24 C3 177 -3.642
24 C3 178 -2.177
24 C3 179 -0.712
24 C3 180 0.753
24 C3 181 1.241
24 C3 182 1.241
24 C3 183 1.241
24 C3 184 0.753
24 C3 185 -0.224
24 C3 186 -2.177
24 C3 187 -4.130
24 C3 188 -6.083
24 C3 189 -6.571
24 C3 190 -6.571
24 C3 191 -5.107
24 C3 192 -3.642
24 C3 193 -1.689
24 C3 194 -0.712
24 C3 195 -0.224
24 C3 196 -0.224
24 C3 197 -1.200
24 C3 198 -1.689
24 C3 199 -2.177
24 C3 200 -1.689
24 C3 201 -0.712
24 C3 202 0.753
24 C3 203 2.218
24 C3 204 2.706
24 C3 205 2.218
24 C3 206 1.241
24 C3 207 0.264
24 C3 208 -1.200
24 C3 209 -2.177
24 C3 210 -3.642
24 C3 211 -5.107
24 C3 212 -7.060
24 C3 213 -8.036
24 C3 214 -8.036
24 C3 215 -8.036
24 C3 216 -7.548
24 C3 217 -7.060
24 C3 218 -5.595
24 C3 219 -3.642
24 C3 220 -2.177
24 C3 221 -1.200
24 C3 222 -1.200
24 C3 223 -1.689
24 C3 224 -2.177
24 C3 225 -2.665
24 C3 226 -3.153
24 C3 227 -2.665
24 C3 228 -2.665
24 C3 229 -3.153
24 C3 230 -3.153
24 C3 231 -3.642
24 C3 232 -4.130
24 C3 233 -4.618
24 C3 234 -5.107
24 C3 235 -4.618
24 C3 236 -4.130
24 C3 237 -3.153
24 C3 238 -2.665
24 C3 239 -2.665
24 C3 240 -3.642
24 C3 241 -4.130
24 C3 242 -3.153
24 C3 243 -1.200
24 C3 244 0.264
24 C3 245 0.753
24 C3 246 0.264
24 C3 247 -1.200
24 C3 248 -2.665
24 C3 249 -4.130
24 C3 250 -5.107
24 C3 251 -5.595
24 C3 252 -5.595
24 C3 253 -4.130
24 C3 254 -2.177
24 C3 255 -0.712
# C4 chan 17
24 C4 0 2.472
24 C4 1 1.984
24 C4 2 0.519
24 C4 3 -0.946
24 C4 4 -1.923
24 C4 5 -1.923
24 C4 6 -1.434
24 C4 7 -0.946
24 C4 8 -0.946
24 C4 9 -0.946
24 C4 10 -0.946
24 C4 11 0.031
24 C4 12 1.984
24 C4 13 3.448
24 C4 14 4.913
24 C4 15 4.913
24 C4 16 4.425
24 C4 17 2.960
24 C4 18 2.472
24 C4 19 2.472
24 C4 20 2.960
24 C4 21 2.472
24 C4 22 1.984
24 C4 23 0.519
24 C4 24 -0.458
24 C4 25 -0.946
24 C4 26 -0.946
24 C4 27 -0.458
24 C4 28 -0.458
24 C4 29 -0.458
24 C4 30 -0.946
24 C4 31 -0.946
24 C4 32 -0.458
24 C4 33 0.519
24 C4 34 2.472
24 C4 35 3.448
24 C4 36 4.425
24 C4 37 4.425
24 C4 38 3.448
24 C4 39 1.495
24 C4 40 -0.458
24 C4 41 -2.411
24 C4 42 -3.876
24 C4 43 -5.341
24 C4 44 -5.829
24 C4 45 -5.829
24 C4 46 -5.829
24 C4 47 -5.341
24 C4 48 -4.364
24 C4 49 -2.411
24 C4 50 -0.946
24 C4 51 0.519
24 C4 52 1.007
24 C4 53 1.007
24 C4 54 0.031
24 C4 55 -1.434
24 C4 56 -2.411
24 C4 57 -2.899
24 C4 58 -2.411
24 C4 59 -0.946
24 C4 60 0.031
24 C4 61 1.007
24 C4 62 1.495
24 C4 63 1.495
24 C4 64 1.495
24 C4 65 1.495
24 C4 66 1.007
24 C4 67 0.519
24 C4 68 0.031
24 C4 69 -0.458
24 C4 70 0.031
24 C4 71 1.007
24 C4 72 2.472
24 C4 73 3.448
24 C4 74 3.937
24 C4 75 3.448
24 C4 76 1.984
24 C4 77 1.007
24 C4 78 0.031
24 C4 79 -0.946
24 C4 80 -0.946
24 C4 81 -1.434
24 C4 82 -1.434
24 C4 83 -1.434
24 C4 84 -0.946
24 C4 85 -0.946
24 C4 86 -0.946
24 C4 87 -0.946
24 C4 88 -0.946
24 C4 89 -1.434
24 C4 90 -1.923
24 C4 91 -1.923
24 C4 92 -2.411
24 C4 93 -1.923
24 C4 94 -1.923
24 C4 95 -1.434
24 C4 96 -0.946
24 C4 97 -0.458
24 C4 98 0.031
24 C4 99 1.007
24 C4 100 1.984
24 C4 101 2.472
24 C4 102 1.984
24 C4 103 0.519
24 C4 104 -1.434
24 C4 105 -3.876
24 C4 106 -5.341
24 C4 107 -5.341
24 C4 108 -4.364
24 C4 109 -2.899
24 C4 110 -1.923
24 C4 111 -1.434
24 C4 112 -1.434
24 C4 113 -1.434
24 C4 114 -0.946
24 C4 115 0.031
24 C4 116 0.031
24 C4 117 0.031
24 C4 118 -0.946
24 C4 119 -1.923
24 C4 120 -2.899
24 C4 121 -3.387
24 C4 122 -3.387
24 C4 123 -3.387
24 C4 124 -3.387
24 C4 125 -3.387
24 C4 126 -3.876
24 C4 127 -4.364
24 C4 128 -4.852
24 C4 129 -5.341
24 C4 130 -4.852
24 C4 131 -4.364
24 C4 132 -3.387
24 C4 133 -2.899
24 C4 134 -2.411
24 C4 135 -1.923
24 C4 136 -1.923
24 C4 137 -1.923
24 C4 138 -1.434
24 C4 139 -0.946
24 C4 140 -1.923
24 C4 141 -2.411
24 C4 142 -3.387
24 C4 143 -4.364
24 C4 144 -4.852
24 C4 145 -4.852
24 C4 146 -4.364
24 C4 147 -4.364
24 C4 148 -3.387
24 C4 149 -2.899
24 C4 150 -2.899
24 C4 151 -2.411
24 C4 152 -2.411
24 C4 153 -1.923
24 C4 154 -1.434
24 C4 155 -1.434
24 C4 156 -1.923
24 C4 157 -2.411
24 C4 158 -3.387
24 C4 159 -2.899
24 C4 160 -2.411
24 C4 161 -0.946
24 C4 162 -0.458
24 C4 163 0.031
24 C4 164 -0.458
24 C4 165 -1.434
24 C4 166 -2.899
24 C4 167 -4.364
24 C4 168 -4.852
24 C4 169 -4.852
24 C4 170 -5.341
24 C4 171 -5.341
24 C4 172 -4.852
24 C4 173 -3.876
24 C4 174 -1.923
24 C4 175 1.007
24 C4 176 2.960
24 C4 177 3.448
24 C4 178 2.960
24 C4 179 1.007
24 C4 180 -0.946
24 C4 181 -3.387
24 C4 182 -5.341
24 C4 183 -6.805
24 C4 184 -6.805
24 C4 185 -6.317
24 C4 186 -4.852
24 C4 187 -3.387
24 C4 188 -2.899
24 C4 189 -2.411
24 C4 190 -2.899
24 C4 191 -2.899
24 C4 192 -2.899
24 C4 193 -2.411
24 C4 194 -1.923
24 C4 195 -1.434
24 C4 196 -1.434
24 C4 197 -1.434
24 C4 198 -0.946
24 C4 199 -0.946
24 C4 200 -1.434
24 C4 201 -1.923
24 C4 202 -3.387
24 C4 203 -5.341
24 C4 204 -6.317
24 C4 205 -6.805
24 C4 206 -6.805
24 C4 207 -5.829
24 C4 208 -4.852
24 C4 209 -4.364
24 C4 210 -4.364
24 C4 211 -3.876
24 C4 212 -2.411
24 C4 213 -0.946
24 C4 214 0.519
24 C4 215 1.495
24 C4 216 1.984
24 C4 217 1.495
24 C4 218 1.007
24 C4 219 0.031
24 C4 220 -0.458
24 C4 221 -0.946
24 C4 222 -1.923
24 C4 223 -2.899
24 C4 224 -3.876
24 C4 225 -4.852
24 C4 226 -5.341
24 C4 227 -5.341
24 C4 228 -5.341
24 C4 229 -4.852
24 C4 230 -4.852
24 C4 231 -4.364
24 C4 232 -4.364
24 C4 233 -4.364
24 C4 234 -3.387
24 C4 235 -2.411
24 C4 236 -1.434
24 C4 237 -0.458
24 C4 238 0.031
24 C4 239 -0.458
24 C4 240 -0.946
24 C4 241 -1.923
24 C4 242 -2.899
24 C4 243 -3.387
24 C4 244 -4.364
24 C4 245 -4.852
24 C4 246 -5.829
24 C4 247 -6.805
24 C4 248 -6.317
24 C4 249 -5.341
24 C4 250 -2.899
24 C4 251 0.031
24 C4 252 1.984
24 C4 253 2.960
24 C4 254 2.472
24 C4 255 1.007
# CP5 chan 18
24 CP5 0 6.958
24 CP5 1 7.935
24 CP5 2 7.935
24 CP5 3 7.446
24 CP5 4 5.981
24 CP5 5 3.052
24 CP5 6 0.122
24 CP5 7 -2.319
24 CP5 8 -5.249
24 CP5 9 -7.690
24 CP5 10 -9.155
24 CP5 11 -10.132
24 CP5 12 -10.132
24 CP5 13 -8.667
24 CP5 14 -6.714
24 CP5 15 -4.272
24 CP5 16 -1.831
24 CP5 17 -0.854
24 CP5 18 -0.854
24 CP5 19 -0.854
24 CP5 20 -1.343
24 CP5 21 -1.343
24 CP5 22 -1.343
24 CP5 23 -0.366
24 CP5 24 2.075
24 CP5 25 5.005
24 CP5 26 7.446
24 CP5 27 7.935
24 CP5 28 5.493
24 CP5 29 1.099
24 CP5 30 -3.296
24 CP5 31 -7.690
24 CP5 32 -9.644
24 CP5 33 -10.132
24 CP5 34 -10.132
24 CP5 35 -10.620
24 CP5 36 -11.108
24 CP5 37 -11.108
24 CP5 38 -9.644
24 CP5 39 -8.179
24 CP5 40 -7.690
24 CP5 41 -8.667
24 CP5 42 -11.108
24 CP5 43 -13.062
24 CP5 44 -14.038
24 CP5 45 -12.573
24 CP5 46 -9.644
24 CP5 47 -7.202
24 CP5 48 -6.714
24 CP5 49 -8.667
24 CP5 50 -11.597
24 CP5 51 -13.550
24 CP5 52 -13.062
24 CP5 53 -10.620
24 CP5 54 -7.202
24 CP5 55 -4.272
24 CP5 56 -2.319
24 CP5 57 -1.343
24 CP5 58 -0.366
24 CP5 59 1.587
24 CP5 60 4.028
24 CP5 61 5.981
24 CP5 62 6.470
24 CP5 63 5.493
24 CP5 64 4.517
24 CP5 65 4.028
24 CP5 66 3.540
24 CP5 67 3.052
24 CP5 68 1.587
24 CP5 69 -0.366
24 CP5 70 -2.319
24 CP5 71 -3.784
24 CP5 72 -4.272
24 CP5 73 -4.272
24 CP5 74 -3.784
24 CP5 75 -3.296
24 CP5 76 -2.319
24 CP5 77 -0.854
24 CP5 78 -0.366
24 CP5 79 0.610
24 CP5 80 0.610
24 CP5 81 0.610
24 CP5 82 0.122
24 CP5 83 -0.366
24 CP5 84 0.122
24 CP5 85 -0.366
24 CP5 86 -0.366
24 CP5 87 -1.343
24 CP5 88 -1.831
24 CP5 89 -1.343
24 CP5 90 -0.366
24 CP5 91 1.099
24 CP5 92 2.075
24 CP5 93 1.587
24 CP5 94 0.122
24 CP5 95 -2.319
24 CP5 96 -3.784
24 CP5 97 -4.761
24 CP5 98 -4.272
24 CP5 99 -3.296
24 CP5 100 -2.808
24 CP5 101 -1.343
24 CP5 102 -0.366
24 CP5 103 1.587
24 CP5 104 2.563
24 CP5 105 3.052
24 CP5 106 3.052
24 CP5 107 3.052
24 CP5 108 3.052
24 CP5 109 2.563
24 CP5 110 1.587
24 CP5 111 -0.366
24 CP5 112 -2.808
24 CP5 113 -5.249
24 CP5 114 -6.226
24 CP5 115 -4.761
24 CP5 116 -1.831
24 CP5 117 1.099
24 CP5 118 4.028
24 CP5 119 5.005
24 CP5 120 5.493
24 CP5 121 5.005
24 CP5 122 3.540
24 CP5 123 2.075
24 CP5 124 0.122
24 CP5 125 -1.831
24 CP5 126 -4.761
24 CP5 127 -6.714
24 CP5 128 -7.690
24 CP5 129 -6.226
24 CP5 130 -3.296
24 CP5 131 -0.366
24 CP5 132 2.563
24 CP5 133 3.540
24 CP5 134 3.540
24 CP5 135 2.563
24 CP5 136 0.610
24 CP5 137 -1.343
24 CP5 138 -2.319
24 CP5 139 -2.808
24 CP5 140 -2.808
24 CP5 141 -1.831
24 CP5 142 -0.854
24 CP5 143 0.610
24 CP5 144 1.587
24 CP5 145 3.052
24 CP5 146 3.540
24 CP5 147 3.540
24 CP5 148 3.052
24 CP5 149 1.587
24 CP5 150 -0.854
24 CP5 151 -2.319
24 CP5 152 -3.296
24 CP5 153 -2.808
24 CP5 154 -2.319
24 CP5 155 -1.831
24 CP5 156 -2.319
24 CP5 157 -2.808
24 CP5 158 -3.296
24 CP5 159 -3.296
24 CP5 160 -2.319
24 CP5 161 -1.343
24 CP5 162 -0.854
24 CP5 163 0.610
24 CP5 164 1.587
24 CP5 165 3.540
24 CP5 166 4.517
24 CP5 167 5.005
24 CP5 168 5.005
24 CP5 169 3.540
24 CP5 170 2.075
24 CP5 171 0.610
24 CP5 172 -1.343
24 CP5 173 -2.808
24 CP5 174 -4.761
24 CP5 175 -5.249
24 CP5 176 -4.761
24 CP5 177 -2.808
24 CP5 178 -0.366
24 CP5 179 2.075
24 CP5 180 3.540
24 CP5 181 3.540
24 CP5 182 2.075
24 CP5 183 0.122
24 CP5 184 -2.319
24 CP5 185 -4.761
24 CP5 186 -6.714
24 CP5 187 -7.690
24 CP5 188 -8.667
24 CP5 189 -8.667
24 CP5 190 -8.179
24 CP5 191 -6.714
24 CP5 192 -4.761
24 CP5 193 -1.831
24 CP5 194 0.610
24 CP5 195 2.075
24 CP5 196 2.075
24 CP5 197 0.610
24 CP5 198 -1.831
24 CP5 199 -4.272
24 CP5 200 -4.272
24 CP5 201 -2.808
24 CP5 202 0.122
24 CP5 203 2.075
24 CP5 204 3.052
24 CP5 205 3.052
24 CP5 206 2.075
24 CP5 207 1.099
24 CP5 208 0.122
24 CP5 209 -1.831
24 CP5 210 -4.761
24 CP5 211 -7.690
24 CP5 212 -9.644
24 CP5 213 -10.620
24 CP5 214 -9.644
24 CP5 215 -8.667
24 CP5 216 -7.690
24 CP5 217 -7.690
24 CP5 218 -6.714
24 CP5 219 -5.737
24 CP5 220 -3.296
24 CP5 221 -1.831
24 CP5 222 -1.343
24 CP5 223 -3.296
24 CP5 224 -5.249
24 CP5 225 -6.714
24 CP5 226 -6.714
24 CP5 227 -5.249
24 CP5 228 -3.296
24 CP5 229 -2.319
24 CP5 230 -2.319
24 CP5 231 -3.296
24 CP5 232 -3.784
24 CP5 233 -4.272
24 CP5 234 -3.784
24 CP5 235 -3.296
24 CP5 236 -2.808
24 CP5 237 -2.319
24 CP5 238 -3.296
24 CP5 239 -4.761
24 CP5 240 -5.737
24 CP5 241 -6.714
24 CP5 242 -5.737
24 CP5 243 -3.296
24 CP5 244 -0.366
24 CP5 245 1.587
24 CP5 246 2.075
24 CP5 247 0.122
24 CP5 248 -2.808
24 CP5 249 -6.226
24 CP5 250 -9.155
24 CP5 251 -9.644
24 CP5 252 -8.667
24 CP5 253 -5.249
24 CP5 254 -1.831
24 CP5 255 1.587
# CP6 chan 19
24 CP6 0 7.782
24 CP6 1 8.270
24 CP6 2 6.805
24 CP6 3 4.364
24 CP6 4 1.434
24 CP6 5 -0.519
24 CP6 6 -1.984
24 CP6 7 -2.960
24 CP6 8 -4.425
24 CP6 9 -5.402
24 CP6 10 -5.890
24 CP6 11 -4.913
24 CP6 12 -1.984
24 CP6 13 1.434
24 CP6 14 4.364
24 CP6 15 5.341
24 CP6 16 4.852
24 CP6 17 3.387
24 CP6 18 1.923
24 CP6 19 0.946
24 CP6 20 0.458
24 CP6 21 -0.519
24 CP6 22 -1.007
24 CP6 23 -1.495
24 CP6 24 -1.007
24 CP6 25 0.458
24 CP6 26 1.923
24 CP6 27 2.411
24 CP6 28 1.923
24 CP6 29 -0.031
24 CP6 30 -1.495
24 CP6 31 -2.472
24 CP6 32 -1.495
24 CP6 33 0.458
24 CP6 34 2.411
24 CP6 35 3.876
24 CP6 36 3.876
24 CP6 37 3.876
24 CP6 38 2.899
24 CP6 39 0.946
24 CP6 40 -1.007
24 CP6 41 -3.937
24 CP6 42 -7.355
24 CP6 43 -9.308
24 CP6 44 -10.284
24 CP6 45 -9.796
24 CP6 46 -8.820
24 CP6 47 -7.355
24 CP6 48 -6.378
24 CP6 49 -5.890
24 CP6 50 -4.913
24 CP6 51 -4.425
24 CP6 52 -2.960
24 CP6 53 -2.472
24 CP6 54 -2.472
24 CP6 55 -3.448
24 CP6 56 -4.913
24 CP6 57 -5.402
24 CP6 58 -4.913
24 CP6 59 -2.960
24 CP6 60 -1.007
24 CP6 61 1.434
24 CP6 62 3.387
24 CP6 63 4.364
24 CP6 64 4.364
24 CP6 65 3.387
24 CP6 66 1.434
24 CP6 67 -1.007
24 CP6 68 -2.960
24 CP6 69 -3.937
24 CP6 70 -3.448
24 CP6 71 -1.495
24 CP6 72 0.946
24 CP6 73 2.411
24 CP6 74 2.411
24 CP6 75 1.434
24 CP6 76 -0.031
24 CP6 77 -1.495
24 CP6 78 -1.984
24 CP6 79 -1.984
24 CP6 80 -1.984
24 CP6 81 -1.495
24 CP6 82 -1.495
24 CP6 83 -1.007
24 CP6 84 -1.007
24 CP6 85 -0.519
24 CP6 86 -0.031
24 CP6 87 -0.031
24 CP6 88 -0.519
24 CP6 89 -1.007
24 CP6 90 -1.984
24 CP6 91 -2.472
24 CP6 92 -2.960
24 CP6 93 -2.960
24 CP6 94 -2.472
24 CP6 95 -1.007
24 CP6 96 -0.519
24 CP6 97 -0.031
24 CP6 98 0.458
24 CP6 99 -0.031
24 CP6 100 -0.031
24 CP6 101 -0.031
24 CP6 102 -0.519
24 CP6 103 -1.984
24 CP6 104 -4.425
24 CP6 105 -6.378
24 CP6 106 -6.378
24 CP6 107 -4.913
24 CP6 108 -1.984
24 CP6 109 -0.031
24 CP6 110 0.946
24 CP6 111 -0.031
24 CP6 112 -1.984
24 CP6 113 -3.448
24 CP6 114 -2.960
24 CP6 115 -1.495
24 CP6 116 -0.031
24 CP6 117 0.458
24 CP6 118 -0.031
24 CP6 119 -1.007
24 CP6 120 -1.495
24 CP6 121 -1.007
24 CP6 122 -0.519
24 CP6 123 -0.031
24 CP6 124 -0.031
24 CP6 125 -1.495
24 CP6 126 -3.448
24 CP6 127 -5.402
24 CP6 128 -6.866
24 CP6 129 -6.866
24 CP6 130 -5.402
24 CP6 131 -3.937
24 CP6 132 -1.984
24 CP6 133 -1.007
24 CP6 134 -0.519
24 CP6 135 -1.007
24 CP6 136 -1.984
24 CP6 137 -2.960
24 CP6 138 -2.960
24 CP6 139 -2.472
24 CP6 140 -1.984
24 CP6 141 -1.984
24 CP6 142 -2.472
24 CP6 143 -2.960
24 CP6 144 -2.960
24 CP6 145 -2.960
24 CP6 146 -1.984
24 CP6 147 -1.007
24 CP6 148 -0.519
24 CP6 149 -1.007
24 CP6 150 -1.984
24 CP6 151 -2.960
24 CP6 152 -3.937
24 CP6 153 -3.937
24 CP6 154 -3.448
24 CP6 155 -2.960
24 CP6 156 -2.960
24 CP6 157 -3.448
24 CP6 158 -3.937
24 CP6 159 -3.448
24 CP6 160 -2.472
24 CP6 161 -1.007
24 CP6 162 0.458
24 CP6 163 0.946
24 CP6 164 0.946
24 CP6 165 -0.031
24 CP6 166 -1.007
24 CP6 167 -1.984
24 CP6 168 -2.960
24 CP6 169 -3.448
24 CP6 170 -4.425
24 CP6 171 -5.402
24 CP6 172 -5.402
24 CP6 173 -3.937
24 CP6 174 -1.007
24 CP6 175 2.899
24 CP6 176 5.341
24 CP6 177 6.805
24 CP6 178 6.805
24 CP6 179 4.852
24 CP6 180 2.899
24 CP6 181 -0.031
24 CP6 182 -2.960
24 CP6 183 -5.890
24 CP6 184 -7.843
24 CP6 185 -8.820
24 CP6 186 -8.331
24 CP6 187 -7.843
24 CP6 188 -6.378
24 CP6 189 -5.402
24 CP6 190 -3.937
24 CP6 191 -3.448
24 CP6 192 -1.984
24 CP6 193 -1.007
24 CP6 194 -0.031
24 CP6 195 -0.031
24 CP6 196 -0.519
24 CP6 197 -1.007
24 CP6 198 -1.495
24 CP6 199 -1.984
24 CP6 200 -2.472
24 CP6 201 -3.448
24 CP6 202 -3.937
24 CP6 203 -3.937
24 CP6 204 -3.937
24 CP6 205 -3.937
24 CP6 206 -3.937
24 CP6 207 -3.937
24 CP6 208 -4.913
24 CP6 209 -6.378
24 CP6 210 -6.866
24 CP6 211 -7.355
24 CP6 212 -6.378
24 CP6 213 -4.425
24 CP6 214 -2.472
24 CP6 215 -1.007
24 CP6 216 -1.007
24 CP6 217 -1.495
24 CP6 218 -1.984
24 CP6 219 -1.984
24 CP6 220 -1.007
24 CP6 221 -0.031
24 CP6 222 0.458
24 CP6 223 -0.519
24 CP6 224 -1.984
24 CP6 225 -2.960
24 CP6 226 -3.448
24 CP6 227 -3.448
24 CP6 228 -3.937
24 CP6 229 -4.425
24 CP6 230 -6.378
24 CP6 231 -8.820
24 CP6 232 -10.773
24 CP6 233 -10.773
24 CP6 234 -9.308
24 CP6 235 -6.866
24 CP6 236 -3.937
24 CP6 237 -1.007
24 CP6 238 0.458
24 CP6 239 0.458
24 CP6 240 0.458
24 CP6 241 0.458
24 CP6 242 -0.031
24 CP6 243 -0.031
24 CP6 244 -0.519
24 CP6 245 -1.984
24 CP6 246 -3.448
24 CP6 247 -5.402
24 CP6 248 -6.378
24 CP6 249 -5.402
24 CP6 250 -2.960
24 CP6 251 0.458
24 CP6 252 3.387
24 CP6 253 4.852
24 CP6 254 4.364
24 CP6 255 2.899
# CP1 chan 20
24 CP1 0 1.892
24 CP1 1 2.380
24 CP1 2 1.892
24 CP1 3 0.916
24 CP1 4 -0.061
24 CP1 5 -1.038
24 CP1 6 -1.526
24 CP1 7 -2.014
24 CP1 8 -2.502
24 CP1 9 -2.014
24 CP1 10 -1.526
24 CP1 11 -2.014
24 CP1 12 -1.526
24 CP1 13 -1.526
24 CP1 14 -1.038
24 CP1 15 -1.526
24 CP1 16 -1.526
24 CP1 17 -2.014
24 CP1 18 -2.502
24 CP1 19 -2.502
24 CP1 20 -2.502
24 CP1 21 -2.014
24 CP1 22 -1.526
24 CP1 23 -0.061
24 CP1 24 1.404
24 CP1 25 2.869
24 CP1 26 3.845
24 CP1 27 3.357
24 CP1 28 1.892
24 CP1 29 -0.549
24 CP1 30 -2.502
24 CP1 31 -3.479
24 CP1 32 -3.967
24 CP1 33 -3.479
24 CP1 34 -3.479
24 CP1 35 -3.967
24 CP1 36 -3.967
24 CP1 37 -3.967
24 CP1 38 -3.967
24 CP1 39 -3.479
24 CP1 40 -3.479
24 CP1 41 -3.967
24 CP1 42 -5.432
24 CP1 43 -6.409
24 CP1 44 -6.409
24 CP1 45 -4.944
24 CP1 46 -3.479
24 CP1 47 -2.502
24 CP1 48 -2.502
24 CP1 49 -3.479
24 CP1 50 -4.944
24 CP1 51 -5.432
24 CP1 52 -5.920
24 CP1 53 -4.944
24 CP1 54 -3.479
24 CP1 55 -2.502
24 CP1 56 -2.014
24 CP1 57 -1.526
24 CP1 58 -1.038
24 CP1 59 -0.549
24 CP1 60 0.427
24 CP1 61 0.916
24 CP1 62 0.916
24 CP1 63 0.916
24 CP1 64 0.427
24 CP1 65 0.427
24 CP1 66 -0.061
24 CP1 67 -0.061
24 CP1 68 -0.549
24 CP1 69 -1.526
24 CP1 70 -2.014
24 CP1 71 -2.502
24 CP1 72 -2.991
24 CP1 73 -3.479
24 CP1 74 -3.479
24 CP1 75 -3.479
24 CP1 76 -3.479
24 CP1 77 -2.502
24 CP1 78 -2.014
24 CP1 79 -1.526
24 CP1 80 -1.526
24 CP1 81 -1.526
24 CP1 82 -1.038
24 CP1 83 -1.038
24 CP1 84 -0.549
24 CP1 85 -0.061
24 CP1 86 -0.061
24 CP1 87 -0.061
24 CP1 88 -0.061
24 CP1 89 0.427
24 CP1 90 0.916
24 CP1 91 0.916
24 CP1 92 0.916
24 CP1 93 -0.061
24 CP1 94 -0.549
24 CP1 95 -1.526
24 CP1 96 -2.014
24 CP1 97 -2.502
24 CP1 98 -2.991
24 CP1 99 -2.991
24 CP1 100 -3.479
24 CP1 101 -3.479
24 CP1 102 -2.502
24 CP1 103 -1.038
24 CP1 104 -0.061
24 CP1 105 1.404
24 CP1 106 2.380
24 CP1 107 2.380
24 CP1 108 2.380
24 CP1 109 1.892
24 CP1 110 0.916
24 CP1 111 -0.549
24 CP1 112 -1.526
24 CP1 113 -2.991
24 CP1 114 -3.479
24 CP1 115 -3.479
24 CP1 116 -2.502
24 CP1 117 -2.014
24 CP1 118 -1.038
24 CP1 119 -1.038
24 CP1 120 -1.038
24 CP1 121 -0.549
24 CP1 122 -0.549
24 CP1 123 -0.061
24 CP1 124 -0.061
24 CP1 125 -0.549
24 CP1 126 -1.526
24 CP1 127 -2.502
24 CP1 128 -2.991
24 CP1 129 -2.502
24 CP1 130 -1.526
24 CP1 131 -0.549
24 CP1 132 0.427
24 CP1 133 0.916
24 CP1 134 0.427
24 CP1 135 -0.061
24 CP1 136 -1.038
24 CP1 137 -2.014
24 CP1 138 -2.502
24 CP1 139 -2.991
24 CP1 140 -3.479
24 CP1 141 -2.991
24 CP1 142 -2.014
24 CP1 143 -0.549
24 CP1 144 0.427
24 CP1 145 1.404
24 CP1 146 1.892
24 CP1 147 1.892
24 CP1 148 1.404
24 CP1 149 0.427
24 CP1 150 -1.526
24 CP1 151 -2.991
24 CP1 152 -3.479
24 CP1 153 -3.479
24 CP1 154 -2.991
24 CP1 155 -2.502
24 CP1 156 -2.991
24 CP1 157 -2.991
24 CP1 158 -3.479
24 CP1 159 -3.479
24 CP1 160 -3.479
24 CP1 161 -3.479
24 CP1 162 -2.991
24 CP1 163 -2.502
24 CP1 164 -1.526
24 CP1 165 -0.061
24 CP1 166 1.404
24 CP1 167 2.380
24 CP1 168 2.380
24 CP1 169 1.404
24 CP1 170 -0.061
24 CP1 171 -2.014
24 CP1 172 -3.967
24 CP1 173 -5.432
24 CP1 174 -5.920
24 CP1 175 -5.920
24 CP1 176 -4.944
24 CP1 177 -3.479
24 CP1 178 -1.526
24 CP1 179 -0.549
24 CP1 180 -0.061
24 CP1 181 -0.549
24 CP1 182 -1.526
24 CP1 183 -2.014
24 CP1 184 -2.991
24 CP1 185 -3.967
24 CP1 186 -4.456
24 CP1 187 -4.456
24 CP1 188 -4.456
24 CP1 189 -3.967
24 CP1 190 -2.991
24 CP1 191 -2.991
24 CP1 192 -2.991
24 CP1 193 -2.991
24 CP1 194 -3.967
24 CP1 195 -3.967
24 CP1 196 -4.456
24 CP1 197 -3.967
24 CP1 198 -3.967
24 CP1 199 -3.479
24 CP1 200 -2.502
24 CP1 201 -1.038
24 CP1 202 0.427
24 CP1 203 1.404
24 CP1 204 1.404
24 CP1 205 0.427
24 CP1 206 -0.549
24 CP1 207 -1.038
24 CP1 208 -1.526
24 CP1 209 -2.502
24 CP1 210 -3.479
24 CP1 211 -4.944
24 CP1 212 -5.920
24 CP1 213 -6.897
24 CP1 214 -6.897
24 CP1 215 -7.385
24 CP1 216 -7.874
24 CP1 217 -8.362
24 CP1 218 -7.874
24 CP1 219 -6.897
24 CP1 220 -5.432
24 CP1 221 -3.479
24 CP1 222 -2.502
24 CP1 223 -2.502
24 CP1 224 -3.479
24 CP1 225 -3.967
24 CP1 226 -3.967
24 CP1 227 -3.479
24 CP1 228 -2.502
24 CP1 229 -2.502
24 CP1 230 -2.502
24 CP1 231 -2.991
24 CP1 232 -3.479
24 CP1 233 -3.967
24 CP1 234 -4.456
24 CP1 235 -4.456
24 CP1 236 -4.456
24 CP1 237 -4.456
24 CP1 238 -4.944
24 CP1 239 -5.432
24 CP1 240 -5.432
24 CP1 241 -5.432
24 CP1 242 -3.967
24 CP1 243 -2.014
24 CP1 244 -0.061
24 CP1 245 1.404
24 CP1 246 0.916
24 CP1 247 -0.549
24 CP1 248 -2.991
24 CP1 249 -5.432
24 CP1 250 -6.897
24 CP1 251 -6.897
24 CP1 252 -5.920
24 CP1 253 -3.479
24 CP1 254 -1.526
24 CP1 255 0.427
# CP2 chan 21
24 CP2 0 1.923
24 CP2 1 0.946
24 CP2 2 -1.007
24 CP2 3 -2.472
24 CP2 4 -3.937
24 CP2 5 -4.913
24 CP2 6 -4.913
24 CP2 7 -3.937
24 CP2 8 -3.448
24 CP2 9 -2.472
24 CP2 10 -1.495
24 CP2 11 0.458
24 CP2 12 2.411
24 CP2 13 4.364
24 CP2 14 5.341
24 CP2 15 5.341
24 CP2 16 4.852
24 CP2 17 3.387
24 CP2 18 1.923
24 CP2 19 0.458
24 CP2 20 -0.031
24 CP2 21 -1.007
24 CP2 22 -1.007
24 CP2 23 -1.007
24 CP2 24 -0.031
24 CP2 25 0.946
24 CP2 26 1.434
24 CP2 27 1.434
24 CP2 28 0.946
24 CP2 29 -0.031
24 CP2 30 -1.007
24 CP2 31 -1.007
24 CP2 32 -0.031
24 CP2 33 0.946
24 CP2 34 1.923
24 CP2 35 1.923
24 CP2 36 1.434
24 CP2 37 0.946
24 CP2 38 0.458
24 CP2 39 -0.031
24 CP2 40 -1.007
24 CP2 41 -2.960
24 CP2 42 -4.913
24 CP2 43 -6.378
24 CP2 44 -6.378
24 CP2 45 -5.890
24 CP2 46 -4.913
24 CP2 47 -3.448
24 CP2 48 -2.472
24 CP2 49 -1.984
24 CP2 50 -1.495
24 CP2 51 -1.495
24 CP2 52 -1.007
24 CP2 53 -1.007
24 CP2 54 -1.495
24 CP2 55 -1.984
24 CP2 56 -2.472
24 CP2 57 -2.472
24 CP2 58 -1.984
24 CP2 59 -0.519
24 CP2 60 -0.031
24 CP2 61 0.946
24 CP2 62 1.434
24 CP2 63 1.434
24 CP2 64 1.434
24 CP2 65 0.946
24 CP2 66 -0.031
24 CP2 67 -1.007
24 CP2 68 -1.495
24 CP2 69 -1.984
24 CP2 70 -1.495
24 CP2 71 -1.007
24 CP2 72 -0.519
24 CP2 73 -0.031
24 CP2 74 0.458
24 CP2 75 -0.031
24 CP2 76 -0.519
24 CP2 77 -1.007
24 CP2 78 -1.495
24 CP2 79 -1.984
24 CP2 80 -1.984
24 CP2 81 -1.984
24 CP2 82 -1.984
24 CP2 83 -1.495
24 CP2 84 -1.495
24 CP2 85 -1.007
24 CP2 86 -0.031
24 CP2 87 0.458
24 CP2 88 0.946
24 CP2 89 1.434
24 CP2 90 1.434
24 CP2 91 0.946
24 CP2 92 0.458
24 CP2 93 -0.031
24 CP2 94 -0.031
24 CP2 95 -0.031
24 CP2 96 -0.031
24 CP2 97 -0.031
24 CP2 98 -0.031
24 CP2 99 -0.519
24 CP2 100 -0.519
24 CP2 101 -1.007
24 CP2 102 -1.007
24 CP2 103 -0.519
24 CP2 104 -1.007
24 CP2 105 -1.007
24 CP2 106 -0.519
24 CP2 107 0.458
24 CP2 108 1.434
24 CP2 109 2.411
24 CP2 110 2.899
24 CP2 111 1.923
24 CP2 112 0.946
24 CP2 113 0.458
24 CP2 114 -0.031
24 CP2 115 0.458
24 CP2 116 0.458
24 CP2 117 0.458
24 CP2 118 -0.031
24 CP2 119 -1.007
24 CP2 120 -1.495
24 CP2 121 -1.495
24 CP2 122 -1.007
24 CP2 123 -0.031
24 CP2 124 0.458
24 CP2 125 0.458
24 CP2 126 -0.031
24 CP2 127 -0.519
24 CP2 128 -1.007
24 CP2 129 -1.007
24 CP2 130 -0.519
24 CP2 131 -0.031
24 CP2 132 0.458
24 CP2 133 0.458
24 CP2 134 0.458
24 CP2 135 -0.031
24 CP2 136 -0.519
24 CP2 137 -1.007
24 CP2 138 -1.007
24 CP2 139 -1.007
24 CP2 140 -1.007
24 CP2 141 -1.495
24 CP2 142 -1.984
24 CP2 143 -2.472
24 CP2 144 -2.472
24 CP2 145 -1.984
24 CP2 146 -1.007
24 CP2 147 -0.031
24 CP2 148 0.458
24 CP2 149 0.458
24 CP2 150 -0.031
24 CP2 151 -0.519
24 CP2 152 -1.495
24 CP2 153 -1.495
24 CP2 154 -1.495
24 CP2 155 -1.495
24 CP2 156 -2.472
24 CP2 157 -2.960
24 CP2 158 -3.937
24 CP2 159 -3.937
24 CP2 160 -3.937
24 CP2 161 -2.960
24 CP2 162 -2.472
24 CP2 163 -1.495
24 CP2 164 -1.495
24 CP2 165 -0.519
24 CP2 166 -0.031
24 CP2 167 0.458
24 CP2 168 0.458
24 CP2 169 -0.031
24 CP2 170 -1.007
24 CP2 171 -1.984
24 CP2 172 -2.960
24 CP2 173 -2.960
24 CP2 174 -1.984
24 CP2 175 -0.519
24 CP2 176 0.946
24 CP2 177 1.923
24 CP2 178 2.411
24 CP2 179 1.923
24 CP2 180 0.946
24 CP2 181 -1.007
24 CP2 182 -2.960
24 CP2 183 -5.402
24 CP2 184 -7.355
24 CP2 185 -7.843
24 CP2 186 -7.355
24 CP2 187 -5.402
24 CP2 188 -2.960
24 CP2 189 -1.007
24 CP2 190 0.458
24 CP2 191 0.458
24 CP2 192 -0.519
24 CP2 193 -1.495
24 CP2 194 -1.984
24 CP2 195 -2.960
24 CP2 196 -3.448
24 CP2 197 -3.937
24 CP2 198 -3.937
24 CP2 199 -3.448
24 CP2 200 -2.472
24 CP2 201 -1.984
24 CP2 202 -1.495
24 CP2 203 -1.984
24 CP2 204 -2.472
24 CP2 205 -3.448
24 CP2 206 -3.937
24 CP2 207 -3.448
24 CP2 208 -3.448
24 CP2 209 -2.960
24 CP2 210 -3.448
24 CP2 211 -2.960
24 CP2 212 -2.960
24 CP2 213 -1.984
24 CP2 214 -1.007
24 CP2 215 -0.519
24 CP2 216 -1.495
24 CP2 217 -2.472
24 CP2 218 -3.448
24 CP2 219 -4.913
24 CP2 220 -4.913
24 CP2 221 -4.425
24 CP2 222 -4.425
24 CP2 223 -4.425
24 CP2 224 -4.913
24 CP2 225 -4.913
24 CP2 226 -3.937
24 CP2 227 -2.960
24 CP2 228 -1.984
24 CP2 229 -1.495
24 CP2 230 -1.495
24 CP2 231 -1.984
24 CP2 232 -2.472
24 CP2 233 -2.472
24 CP2 234 -2.472
24 CP2 235 -2.472
24 CP2 236 -2.472
24 CP2 237 -2.472
24 CP2 238 -2.472
24 CP2 239 -2.472
24 CP2 240 -2.472
24 CP2 241 -1.984
24 CP2 242 -1.495
24 CP2 243 -0.519
24 CP2 244 0.458
24 CP2 245 0.458
24 CP2 246 -0.519
24 CP2 247 -1.984
24 CP2 248 -2.960
24 CP2 249 -3.937
24 CP2 250 -3.448
24 CP2 251 -1.495
24 CP2 252 0.458
24 CP2 253 2.411
24 CP2 254 3.387
24 CP2 255 3.387
# P3 chan 22
24 P3 0 6.673
24 P3 1 7.161
24 P3 2 6.673
24 P3 3 5.208
24 P3 4 3.255
24 P3 5 0.814
24 P3 6 -1.139
24 P3 7 -2.604
24 P3 8 -4.069
24 P3 9 -5.534
24 P3 10 -6.022
24 P3 11 -6.022
24 P3 12 -5.046
24 P3 13 -3.092
24 P3 14 -0.651
24 P3 15 1.302
24 P3 16 1.790
24 P3 17 0.814
24 P3 18 -0.651
24 P3 19 -2.116
24 P3 20 -3.092
24 P3 21 -3.092
24 P3 22 -2.116
24 P3 23 -0.163
24 P3 24 2.767
24 P3 25 6.673
24 P3 26 9.115
24 P3 27 10.091
24 P3 28 7.650
24 P3 29 3.743
24 P3 30 -1.139
24 P3 31 -5.046
24 P3 32 -6.999
24 P3 33 -7.487
24 P3 34 -7.487
24 P3 35 -7.487
24 P3 36 -7.975
24 P3 37 -7.487
24 P3 38 -6.999
24 P3 39 -6.510
24 P3 40 -6.999
24 P3 41 -8.952
24 P3 42 -11.882
24 P3 43 -13.835
24 P3 44 -14.323
24 P3 45 -12.370
24 P3 46 -9.440
24 P3 47 -6.999
24 P3 48 -6.022
24 P3 49 -6.999
24 P3 50 -9.440
24 P3 51 -10.417
24 P3 52 -10.417
24 P3 53 -8.952
24 P3 54 -7.487
24 P3 55 -6.510
24 P3 56 -5.534
24 P3 57 -4.069
24 P3 58 -2.604
24 P3 59 -0.163
24 P3 60 2.767
24 P3 61 4.720
24 P3 62 5.697
24 P3 63 5.697
24 P3 64 4.720
24 P3 65 3.255
24 P3 66 1.302
24 P3 67 -0.651
24 P3 68 -1.628
24 P3 69 -3.092
24 P3 70 -3.581
24 P3 71 -4.069
24 P3 72 -4.557
24 P3 73 -4.557
24 P3 74 -4.557
24 P3 75 -4.557
24 P3 76 -3.581
24 P3 77 -3.092
24 P3 78 -2.604
24 P3 79 -2.604
24 P3 80 -2.604
24 P3 81 -3.092
24 P3 82 -2.604
24 P3 83 -1.628
24 P3 84 -0.651
24 P3 85 0.326
24 P3 86 0.814
24 P3 87 0.814
24 P3 88 0.814
24 P3 89 0.814
24 P3 90 0.814
24 P3 91 0.814
24 P3 92 0.814
24 P3 93 0.326
24 P3 94 -0.163
24 P3 95 -1.139
24 P3 96 -2.116
24 P3 97 -2.604
24 P3 98 -2.604
24 P3 99 -2.116
24 P3 100 -2.116
24 P3 101 -2.116
24 P3 102 -1.139
24 P3 103 -0.163
24 P3 104 0.814
24 P3 105 1.790
24 P3 106 2.767
24 P3 107 3.255
24 P3 108 3.743
24 P3 109 3.743
24 P3 110 2.767
24 P3 111 1.790
24 P3 112 0.326
24 P3 113 -1.628
24 P3 114 -2.116
24 P3 115 -1.628
24 P3 116 -0.163
24 P3 117 1.302
24 P3 118 2.767
24 P3 119 3.255
24 P3 120 3.255
24 P3 121 2.279
24 P3 122 1.790
24 P3 123 1.302
24 P3 124 0.814
24 P3 125 -0.651
24 P3 126 -2.604
24 P3 127 -4.069
24 P3 128 -5.046
24 P3 129 -4.069
24 P3 130 -1.628
24 P3 131 1.302
24 P3 132 2.767
24 P3 133 3.255
24 P3 134 2.767
24 P3 135 1.302
24 P3 136 -0.163
24 P3 137 -1.628
24 P3 138 -2.604
24 P3 139 -3.092
24 P3 140 -3.092
24 P3 141 -2.116
24 P3 142 -1.139
24 P3 143 0.326
24 P3 144 1.302
24 P3 145 2.279
24 P3 146 2.767
24 P3 147 3.255
24 P3 148 3.255
24 P3 149 1.790
24 P3 150 -0.651
24 P3 151 -3.092
24 P3 152 -4.557
24 P3 153 -4.557
24 P3 154 -3.581
24 P3 155 -2.116
24 P3 156 -2.116
24 P3 157 -3.092
24 P3 158 -4.557
24 P3 159 -5.534
24 P3 160 -5.534
24 P3 161 -4.557
24 P3 162 -3.581
24 P3 163 -1.139
24 P3 164 1.302
24 P3 165 4.232
24 P3 166 6.673
24 P3 167 8.138
24 P3 168 7.650
24 P3 169 6.185
24 P3 170 2.767
24 P3 171 -0.163
24 P3 172 -2.604
24 P3 173 -5.046
24 P3 174 -6.022
24 P3 175 -6.022
24 P3 176 -4.069
24 P3 177 -1.628
24 P3 178 1.790
24 P3 179 3.743
24 P3 180 4.232
24 P3 181 2.767
24 P3 182 0.326
24 P3 183 -2.604
24 P3 184 -5.534
24 P3 185 -7.487
24 P3 186 -8.464
24 P3 187 -8.464
24 P3 188 -7.487
24 P3 189 -6.022
24 P3 190 -4.557
24 P3 191 -3.581
24 P3 192 -2.604
24 P3 193 -1.628
24 P3 194 -1.628
24 P3 195 -1.139
24 P3 196 -1.628
24 P3 197 -2.604
24 P3 198 -3.092
24 P3 199 -3.581
24 P3 200 -2.604
24 P3 201 -1.139
24 P3 202 1.302
24 P3 203 2.767
24 P3 204 3.255
24 P3 205 3.255
24 P3 206 2.279
24 P3 207 1.302
24 P3 208 -0.163
24 P3 209 -2.116
24 P3 210 -4.557
24 P3 211 -6.999
24 P3 212 -8.464
24 P3 213 -8.464
24 P3 214 -7.975
24 P3 215 -7.487
24 P3 216 -7.487
24 P3 217 -7.975
24 P3 218 -7.975
24 P3 219 -6.999
24 P3 220 -5.046
24 P3 221 -3.581
24 P3 222 -3.092
24 P3 223 -4.557
24 P3 224 -6.022
24 P3 225 -6.510
24 P3 226 -5.046
24 P3 227 -3.092
24 P3 228 -1.139
24 P3 229 -0.163
24 P3 230 -1.139
24 P3 231 -2.604
24 P3 232 -3.092
24 P3 233 -3.092
24 P3 234 -2.604
24 P3 235 -1.628
24 P3 236 -1.628
24 P3 237 -2.116
24 P3 238 -3.092
24 P3 239 -4.557
24 P3 240 -6.022
24 P3 241 -5.534
24 P3 242 -4.069
24 P3 243 -1.139
24 P3 244 1.790
24 P3 245 4.232
24 P3 246 4.720
24 P3 247 2.767
24 P3 248 -1.139
24 P3 249 -5.046
24 P3 250 -7.975
24 P3 251 -8.464
24 P3 252 -6.022
24 P3 253 -2.604
24 P3 254 1.302
24 P3 255 4.232
# P4 chan 23
24 P4 0 6.175
24 P4 1 5.686
24 P4 2 4.222
24 P4 3 2.268
24 P4 4 -0.173
24 P4 5 -2.126
24 P4 6 -3.591
24 P4 7 -4.567
24 P4 8 -5.544
24 P4 9 -6.032
24 P4 10 -6.032
24 P4 11 -3.591
24 P4 12 -0.173
24 P4 13 3.245
24 P4 14 6.175
24 P4 15 7.640
24 P4 16 6.663
24 P4 17 5.198
24 P4 18 2.757
24 P4 19 0.315
24 P4 20 -1.149
24 P4 21 -2.126
24 P4 22 -2.614
24 P4 23 -2.126
24 P4 24 -0.661
24 P4 25 1.292
24 P4 26 4.222
24 P4 27 5.198
24 P4 28 4.710
24 P4 29 2.268
24 P4 30 -0.173
24 P4 31 -1.638
24 P4 32 -1.638
24 P4 33 -0.173
24 P4 34 1.780
24 P4 35 2.757
24 P4 36 3.245
24 P4 37 2.757
24 P4 38 1.780
24 P4 39 0.315
24 P4 40 -2.126
24 P4 41 -5.544
24 P4 42 -9.450
24 P4 43 -11.892
24 P4 44 -12.868
24 P4 45 -12.380
24 P4 46 -10.427
24 P4 47 -7.985
24 P4 48 -6.521
24 P4 49 -5.544
24 P4 50 -5.544
24 P4 51 -5.544
24 P4 52 -5.056
24 P4 53 -4.567
24 P4 54 -4.079
24 P4 55 -4.567
24 P4 56 -5.056
24 P4 57 -5.056
24 P4 58 -4.079
24 P4 59 -1.638
24 P4 60 0.804
24 P4 61 3.245
24 P4 62 4.710
24 P4 63 5.198
24 P4 64 4.710
24 P4 65 3.245
24 P4 66 0.804
24 P4 67 -1.149
24 P4 68 -3.103
24 P4 69 -4.079
24 P4 70 -4.079
24 P4 71 -3.103
24 P4 72 -1.638
24 P4 73 -0.661
24 P4 74 -0.173
24 P4 75 -0.661
24 P4 76 -2.126
24 P4 77 -3.103
24 P4 78 -4.079
24 P4 79 -4.079
24 P4 80 -3.591
24 P4 81 -3.103
24 P4 82 -2.614
24 P4 83 -2.126
24 P4 84 -1.638
24 P4 85 -0.661
24 P4 86 -0.173
24 P4 87 0.804
24 P4 88 0.804
24 P4 89 0.804
24 P4 90 -0.173
24 P4 91 -1.149
24 P4 92 -2.126
24 P4 93 -2.614
24 P4 94 -2.126
24 P4 95 -1.149
24 P4 96 -0.173
24 P4 97 0.315
24 P4 98 0.315
24 P4 99 -0.661
24 P4 100 -1.149
24 P4 101 -1.638
24 P4 102 -1.638
24 P4 103 -2.126
24 P4 104 -3.103
24 P4 105 -3.591
24 P4 106 -3.103
24 P4 107 -1.149
24 P4 108 1.780
24 P4 109 3.733
24 P4 110 4.222
24 P4 111 2.268
24 P4 112 -0.173
24 P4 113 -2.126
24 P4 114 -2.126
24 P4 115 -1.149
24 P4 116 0.315
24 P4 117 0.315
24 P4 118 -0.661
24 P4 119 -1.149
24 P4 120 -1.638
24 P4 121 -0.661
24 P4 122 0.315
24 P4 123 0.804
24 P4 124 0.315
24 P4 125 -1.149
24 P4 126 -3.103
24 P4 127 -5.544
24 P4 128 -6.032
24 P4 129 -5.056
24 P4 130 -3.591
24 P4 131 -2.126
24 P4 132 -1.149
24 P4 133 -0.173
24 P4 134 -0.173
24 P4 135 -1.149
24 P4 136 -1.638
24 P4 137 -2.614
24 P4 138 -3.103
24 P4 139 -3.103
24 P4 140 -3.103
24 P4 141 -2.614
24 P4 142 -2.614
24 P4 143 -3.103
24 P4 144 -3.103
24 P4 145 -2.614
24 P4 146 -1.638
24 P4 147 -0.661
24 P4 148 -0.173
24 P4 149 -0.661
24 P4 150 -1.638
24 P4 151 -3.103
24 P4 152 -4.079
24 P4 153 -4.567
24 P4 154 -3.591
24 P4 155 -3.103
24 P4 156 -3.103
24 P4 157 -4.079
24 P4 158 -5.056
24 P4 159 -5.544
24 P4 160 -5.056
24 P4 161 -3.591
24 P4 162 -2.614
24 P4 163 -1.149
24 P4 164 -0.173
24 P4 165 0.315
24 P4 166 1.292
24 P4 167 1.292
24 P4 168 0.804
24 P4 169 -0.661
24 P4 170 -2.614
24 P4 171 -5.056
24 P4 172 -6.032
24 P4 173 -6.032
24 P4 174 -3.103
24 P4 175 0.315
24 P4 176 3.733
24 P4 177 6.175
24 P4 178 7.151
24 P4 179 6.175
24 P4 180 4.710
24 P4 181 1.780
24 P4 182 -1.638
24 P4 183 -5.544
24 P4 184 -8.962
24 P4 185 -10.915
24 P4 186 -11.403
24 P4 187 -9.939
24 P4 188 -7.497
24 P4 189 -4.567
24 P4 190 -2.126
24 P4 191 -0.661
24 P4 192 0.315
24 P4 193 0.804
24 P4 194 0.315
24 P4 195 -0.661
24 P4 196 -2.126
24 P4 197 -3.591
24 P4 198 -5.056
24 P4 199 -6.032
24 P4 200 -6.032
24 P4 201 -5.544
24 P4 202 -4.079
24 P4 203 -3.103
24 P4 204 -2.126
24 P4 205 -2.126
24 P4 206 -2.614
24 P4 207 -3.591
24 P4 208 -5.056
24 P4 209 -6.521
24 P4 210 -7.009
24 P4 211 -7.497
24 P4 212 -6.032
24 P4 213 -4.567
24 P4 214 -3.103
24 P4 215 -2.126
24 P4 216 -2.614
24 P4 217 -3.591
24 P4 218 -5.056
24 P4 219 -6.032
24 P4 220 -6.032
24 P4 221 -5.056
24 P4 222 -4.567
24 P4 223 -4.079
24 P4 224 -4.079
24 P4 225 -4.079
24 P4 226 -3.591
24 P4 227 -3.103
24 P4 228 -2.614
24 P4 229 -2.614
24 P4 230 -3.591
24 P4 231 -5.544
24 P4 232 -7.009
24 P4 233 -7.985
24 P4 234 -7.497
24 P4 235 -6.521
24 P4 236 -4.567
24 P4 237 -3.103
24 P4 238 -2.614
24 P4 239 -2.614
24 P4 240 -2.614
24 P4 241 -2.126
24 P4 242 -1.149
24 P4 243 0.804
24 P4 244 1.780
24 P4 245 2.268
24 P4 246 0.804
24 P4 247 -1.638
24 P4 248 -3.591
24 P4 249 -5.056
24 P4 250 -4.567
24 P4 251 -2.126
24 P4 252 0.315
24 P4 253 2.757
24 P4 254 3.733
24 P4 255 3.733
# PZ chan 24
24 PZ 0 5.259
24 PZ 1 5.259
24 PZ 2 3.794
24 PZ 3 1.841
24 PZ 4 -0.600
24 PZ 5 -2.065
24 PZ 6 -3.042
24 PZ 7 -4.018
24 PZ 8 -4.018
24 PZ 9 -4.506
24 PZ 10 -3.530
24 PZ 11 -2.065
24 PZ 12 -0.112
24 PZ 13 2.330
24 PZ 14 4.771
24 PZ 15 5.259
24 PZ 16 4.771
24 PZ 17 2.818
24 PZ 18 0.376
24 PZ 19 -1.577
24 PZ 20 -3.042
24 PZ 21 -4.018
24 PZ 22 -3.530
24 PZ 23 -2.553
24 PZ 24 -0.112
24 PZ 25 2.330
24 PZ 26 4.771
24 PZ 27 5.747
24 PZ 28 4.771
24 PZ 29 2.330
24 PZ 30 -0.112
24 PZ 31 -2.065
24 PZ 32 -2.065
24 PZ 33 -1.577
24 PZ 34 -0.600
24 PZ 35 -0.112
24 PZ 36 -0.112
24 PZ 37 0.376
24 PZ 38 0.376
24 PZ 39 0.376
24 PZ 40 -1.088
24 PZ 41 -3.530
24 PZ 42 -6.460
24 PZ 43 -8.413
24 PZ 44 -9.389
24 PZ 45 -8.901
24 PZ 46 -6.460
24 PZ 47 -4.506
24 PZ 48 -2.553
24 PZ 49 -2.553
24 PZ 50 -3.042
24 PZ 51 -4.018
24 PZ 52 -4.506
24 PZ 53 -4.506
24 PZ 54 -4.018
24 PZ 55 -4.018
24 PZ 56 -4.018
24 PZ 57 -3.530
24 PZ 58 -2.553
24 PZ 59 -0.600
24 PZ 60 1.353
24 PZ 61 2.818
24 PZ 62 3.794
24 PZ 63 3.306
24 PZ 64 2.330
24 PZ 65 0.865
24 PZ 66 -0.600
24 PZ 67 -2.553
24 PZ 68 -3.530
24 PZ 69 -4.018
24 PZ 70 -3.530
24 PZ 71 -3.042
24 PZ 72 -2.065
24 PZ 73 -1.577
24 PZ 74 -1.577
24 PZ 75 -2.065
24 PZ 76 -2.553
24 PZ 77 -3.042
24 PZ 78 -3.530
24 PZ 79 -3.530
24 PZ 80 -3.530
24 PZ 81 -3.042
24 PZ 82 -2.065
24 PZ 83 -1.577
24 PZ 84 -0.600
24 PZ 85 0.376
24 PZ 86 0.865
24 PZ 87 1.841
24 PZ 88 2.330
24 PZ 89 1.841
24 PZ 90 1.841
24 PZ 91 1.353
24 PZ 92 0.376
24 PZ 93 -0.112
24 PZ 94 -0.112
24 PZ 95 -0.112
24 PZ 96 0.376
24 PZ 97 0.865
24 PZ 98 0.865
24 PZ 99 -0.112
24 PZ 100 -0.600
24 PZ 101 -1.088
24 PZ 102 -1.088
24 PZ 103 -1.088
24 PZ 104 -0.600
24 PZ 105 -0.112
24 PZ 106 0.865
24 PZ 107 2.330
24 PZ 108 3.794
24 PZ 109 5.259
24 PZ 110 5.259
24 PZ 111 4.283
24 PZ 112 2.330
24 PZ 113 0.865
24 PZ 114 0.865
24 PZ 115 1.353
24 PZ 116 1.841
24 PZ 117 1.841
24 PZ 118 1.841
24 PZ 119 1.353
24 PZ 120 1.353
24 PZ 121 1.841
24 PZ 122 2.330
24 PZ 123 2.818
24 PZ 124 2.818
24 PZ 125 1.841
24 PZ 126 0.376
24 PZ 127 -0.600
24 PZ 128 -1.088
24 PZ 129 -0.600
24 PZ 130 0.376
24 PZ 131 1.841
24 PZ 132 2.818
24 PZ 133 3.306
24 PZ 134 2.818
24 PZ 135 2.330
24 PZ 136 1.353
24 PZ 137 0.376
24 PZ 138 -0.600
24 PZ 139 -0.600
24 PZ 140 -0.600
24 PZ 141 -0.112
24 PZ 142 -0.112
24 PZ 143 0.376
24 PZ 144 0.376
24 PZ 145 0.865
24 PZ 146 1.841
24 PZ 147 2.818
24 PZ 148 3.306
24 PZ 149 2.818
24 PZ 150 0.865
24 PZ 151 -0.600
24 PZ 152 -2.065
24 PZ 153 -2.065
24 PZ 154 -1.577
24 PZ 155 -0.600
24 PZ 156 -1.088
24 PZ 157 -2.065
24 PZ 158 -4.018
24 PZ 159 -4.506
24 PZ 160 -4.506
24 PZ 161 -3.530
24 PZ 162 -2.065
24 PZ 163 -0.600
24 PZ 164 0.376
24 PZ 165 1.353
24 PZ 166 2.818
24 PZ 167 4.283
24 PZ 168 4.771
24 PZ 169 4.283
24 PZ 170 2.330
24 PZ 171 0.376
24 PZ 172 -1.577
24 PZ 173 -3.042
24 PZ 174 -3.042
24 PZ 175 -1.577
24 PZ 176 -0.112
24 PZ 177 1.841
24 PZ 178 3.306
24 PZ 179 4.283
24 PZ 180 3.794
24 PZ 181 1.841
24 PZ 182 -0.112
24 PZ 183 -3.530
24 PZ 184 -6.460
24 PZ 185 -7.924
24 PZ 186 -8.413
24 PZ 187 -6.460
24 PZ 188 -4.506
24 PZ 189 -2.065
24 PZ 190 -0.600
24 PZ 191 0.376
24 PZ 192 0.376
24 PZ 193 -0.112
24 PZ 194 -0.600
24 PZ 195 -1.577
24 PZ 196 -2.553
24 PZ 197 -3.042
24 PZ 198 -4.018
24 PZ 199 -4.018
24 PZ 200 -3.042
24 PZ 201 -1.577
24 PZ 202 -0.112
24 PZ 203 1.353
24 PZ 204 1.353
24 PZ 205 0.865
24 PZ 206 -0.112
24 PZ 207 -1.088
24 PZ 208 -2.065
24 PZ 209 -3.042
24 PZ 210 -3.530
24 PZ 211 -4.018
24 PZ 212 -3.530
24 PZ 213 -2.553
24 PZ 214 -2.065
24 PZ 215 -2.553
24 PZ 216 -3.530
24 PZ 217 -5.483
24 PZ 218 -6.460
24 PZ 219 -6.460
24 PZ 220 -6.460
24 PZ 221 -5.483
24 PZ 222 -4.506
24 PZ 223 -4.506
24 PZ 224 -4.506
24 PZ 225 -4.018
24 PZ 226 -3.042
24 PZ 227 -1.577
24 PZ 228 -0.112
24 PZ 229 0.376
24 PZ 230 0.865
24 PZ 231 -0.112
24 PZ 232 -1.088
24 PZ 233 -2.065
24 PZ 234 -2.065
24 PZ 235 -2.065
24 PZ 236 -2.065
24 PZ 237 -2.065
24 PZ 238 -2.553
24 PZ 239 -3.530
24 PZ 240 -3.530
24 PZ 241 -3.042
24 PZ 242 -1.088
24 PZ 243 0.865
24 PZ 244 2.818
24 PZ 245 3.306
24 PZ 246 2.818
24 PZ 247 0.865
24 PZ 248 -1.577
24 PZ 249 -3.530
24 PZ 250 -4.506
24 PZ 251 -4.018
24 PZ 252 -2.065
24 PZ 253 0.376
24 PZ 254 3.306
24 PZ 255 4.771
# P8 chan 25
24 P8 0 11.953
24 P8 1 13.906
24 P8 2 13.906
24 P8 3 12.441
24 P8 4 9.023
24 P8 5 5.117
24 P8 6 1.699
24 P8 7 -1.231
24 P8 8 -4.161
24 P8 9 -7.579
24 P8 10 -9.532
24 P8 11 -9.043
24 P8 12 -6.114
24 P8 13 -1.719
24 P8 14 3.164
24 P8 15 5.605
24 P8 16 6.093
24 P8 17 4.628
24 P8 18 2.187
24 P8 19 -0.254
24 P8 20 -2.207
24 P8 21 -3.184
24 P8 22 -4.161
24 P8 23 -3.672
24 P8 24 -1.231
24 P8 25 2.187
24 P8 26 5.605
24 P8 27 7.070
24 P8 28 6.093
24 P8 29 2.675
24 P8 30 -1.231
24 P8 31 -3.672
24 P8 32 -4.161
24 P8 33 -2.696
24 P8 34 -0.743
24 P8 35 1.211
24 P8 36 2.187
24 P8 37 2.187
24 P8 38 1.699
24 P8 39 0.234
24 P8 40 -2.207
24 P8 41 -5.625
24 P8 42 -9.532
24 P8 43 -12.461
24 P8 44 -13.926
24 P8 45 -12.950
24 P8 46 -10.997
24 P8 47 -8.555
24 P8 48 -8.067
24 P8 49 -8.555
24 P8 50 -9.532
24 P8 51 -9.532
24 P8 52 -9.043
24 P8 53 -7.579
24 P8 54 -7.090
24 P8 55 -7.090
24 P8 56 -8.067
24 P8 57 -8.067
24 P8 58 -6.602
24 P8 59 -3.672
24 P8 60 1.211
24 P8 61 5.117
24 P8 62 8.535
24 P8 63 9.511
24 P8 64 9.511
24 P8 65 8.046
24 P8 66 5.117
24 P8 67 1.699
24 P8 68 -1.719
24 P8 69 -3.184
24 P8 70 -3.184
24 P8 71 -1.231
24 P8 72 0.722
24 P8 73 2.675
24 P8 74 2.675
24 P8 75 1.699
24 P8 76 -0.743
24 P8 77 -2.207
24 P8 78 -2.696
24 P8 79 -2.207
24 P8 80 -1.719
24 P8 81 -1.231
24 P8 82 -0.254
24 P8 83 0.722
24 P8 84 1.699
24 P8 85 3.164
24 P8 86 4.140
24 P8 87 4.628
24 P8 88 3.652
24 P8 89 2.187
24 P8 90 -0.254
24 P8 91 -1.719
24 P8 92 -3.184
24 P8 93 -3.184
24 P8 94 -2.207
24 P8 95 -0.254
24 P8 96 0.722
24 P8 97 1.699
24 P8 98 1.699
24 P8 99 1.211
24 P8 100 1.211
24 P8 101 1.699
24 P8 102 1.211
24 P8 103 0.234
24 P8 104 -1.719
24 P8 105 -3.672
24 P8 106 -4.161
24 P8 107 -2.207
24 P8 108 1.699
24 P8 109 3.652
24 P8 110 4.628
24 P8 111 2.675
24 P8 112 -0.254
24 P8 113 -2.696
24 P8 114 -2.696
24 P8 115 -0.743
24 P8 116 1.699
24 P8 117 2.675
24 P8 118 2.187
24 P8 119 1.211
24 P8 120 1.211
24 P8 121 1.699
24 P8 122 2.675
24 P8 123 3.164
24 P8 124 2.187
24 P8 125 -0.743
24 P8 126 -3.672
24 P8 127 -6.602
24 P8 128 -8.067
24 P8 129 -8.067
24 P8 130 -6.114
24 P8 131 -3.184
24 P8 132 -0.254
24 P8 133 1.211
24 P8 134 1.211
24 P8 135 0.234
24 P8 136 -1.719
24 P8 137 -3.184
24 P8 138 -3.672
24 P8 139 -2.696
24 P8 140 -1.719
24 P8 141 -0.743
24 P8 142 0.234
24 P8 143 0.234
24 P8 144 -0.254
24 P8 145 -0.254
24 P8 146 0.234
24 P8 147 0.234
24 P8 148 0.722
24 P8 149 0.234
24 P8 150 -0.743
24 P8 151 -2.696
24 P8 152 -4.161
24 P8 153 -4.161
24 P8 154 -4.161
24 P8 155 -3.184
24 P8 156 -2.207
24 P8 157 -2.207
24 P8 158 -2.207
24 P8 159 -1.719
24 P8 160 -1.231
24 P8 161 0.234
24 P8 162 1.211
24 P8 163 2.675
24 P8 164 3.164
24 P8 165 3.164
24 P8 166 2.675
24 P8 167 2.187
24 P8 168 1.699
24 P8 169 -0.254
24 P8 170 -2.696
24 P8 171 -4.649
24 P8 172 -5.625
24 P8 173 -4.161
24 P8 174 -0.743
24 P8 175 4.628
24 P8 176 9.511
24 P8 177 12.441
24 P8 178 12.929
24 P8 179 11.464
24 P8 180 9.023
24 P8 181 5.605
24 P8 182 2.675
24 P8 183 -0.743
24 P8 184 -4.161
24 P8 185 -6.602
24 P8 186 -8.067
24 P8 187 -8.067
24 P8 188 -8.067
24 P8 189 -6.602
24 P8 190 -4.161
24 P8 191 -1.719
24 P8 192 1.699
24 P8 193 4.140
24 P8 194 5.605
24 P8 195 6.093
24 P8 196 5.605
24 P8 197 4.140
24 P8 198 1.699
24 P8 199 -1.231
24 P8 200 -4.161
24 P8 201 -6.114
24 P8 202 -6.114
24 P8 203 -4.649
24 P8 204 -2.207
24 P8 205 0.234
24 P8 206 1.211
24 P8 207 0.234
24 P8 208 -1.719
24 P8 209 -3.672
24 P8 210 -5.137
24 P8 211 -5.137
24 P8 212 -4.161
24 P8 213 -2.207
24 P8 214 -0.254
24 P8 215 0.722
24 P8 216 0.722
24 P8 217 -0.743
24 P8 218 -2.207
24 P8 219 -2.696
24 P8 220 -2.207
24 P8 221 -0.254
24 P8 222 1.211
24 P8 223 1.699
24 P8 224 0.722
24 P8 225 -0.254
24 P8 226 -0.743
24 P8 227 -0.743
24 P8 228 -0.743
24 P8 229 -1.231
24 P8 230 -3.184
24 P8 231 -6.602
24 P8 232 -10.020
24 P8 233 -10.997
24 P8 234 -10.020
24 P8 235 -6.114
24 P8 236 -2.207
24 P8 237 1.699
24 P8 238 3.164
24 P8 239 3.652
24 P8 240 2.675
24 P8 241 2.187
24 P8 242 2.187
24 P8 243 2.187
24 P8 244 2.187
24 P8 245 1.211
24 P8 246 -1.231
24 P8 247 -3.672
24 P8 248 -4.649
24 P8 249 -3.672
24 P8 250 -1.231
24 P8 251 2.187
24 P8 252 5.117
24 P8 253 6.093
24 P8 254 6.093
24 P8 255 5.605
# P7 chan 26
24 P7 0 9.054
24 P7 1 9.054
24 P7 2 9.054
24 P7 3 8.565
24 P7 4 7.100
24 P7 5 4.659
24 P7 6 1.729
24 P7 7 -2.177
24 P7 8 -5.595
24 P7 9 -9.989
24 P7 10 -13.407
24 P7 11 -15.849
24 P7 12 -16.337
24 P7 13 -12.919
24 P7 14 -7.548
24 P7 15 -1.689
24 P7 16 2.218
24 P7 17 3.194
24 P7 18 2.218
24 P7 19 0.264
24 P7 20 -0.712
24 P7 21 -1.689
24 P7 22 -1.200
24 P7 23 0.753
24 P7 24 3.682
24 P7 25 9.054
24 P7 26 13.448
24 P7 27 15.401
24 P7 28 13.448
24 P7 29 7.100
24 P7 30 -0.224
24 P7 31 -6.083
24 P7 32 -9.013
24 P7 33 -9.501
24 P7 34 -9.501
24 P7 35 -10.966
24 P7 36 -13.407
24 P7 37 -14.872
24 P7 38 -13.896
24 P7 39 -11.943
24 P7 40 -10.478
24 P7 41 -12.431
24 P7 42 -16.337
24 P7 43 -20.243
24 P7 44 -22.196
24 P7 45 -19.755
24 P7 46 -15.361
24 P7 47 -10.966
24 P7 48 -9.501
24 P7 49 -10.966
24 P7 50 -13.896
24 P7 51 -15.361
24 P7 52 -14.872
24 P7 53 -12.919
24 P7 54 -10.966
24 P7 55 -9.013
24 P7 56 -7.548
24 P7 57 -5.595
24 P7 58 -2.665
24 P7 59 1.241
24 P7 60 5.636
24 P7 61 9.054
24 P7 62 11.007
24 P7 63 11.495
24 P7 64 10.030
24 P7 65 7.589
24 P7 66 4.659
24 P7 67 1.241
24 P7 68 -1.200
24 P7 69 -2.665
24 P7 70 -4.130
24 P7 71 -5.107
24 P7 72 -6.571
24 P7 73 -7.060
24 P7 74 -6.571
24 P7 75 -4.618
24 P7 76 -1.200
24 P7 77 1.241
24 P7 78 1.241
24 P7 79 -0.712
24 P7 80 -3.153
24 P7 81 -4.130
24 P7 82 -3.642
24 P7 83 -1.689
24 P7 84 0.264
24 P7 85 1.241
24 P7 86 0.753
24 P7 87 -0.224
24 P7 88 -0.712
24 P7 89 -0.712
24 P7 90 0.264
24 P7 91 1.241
24 P7 92 1.729
24 P7 93 1.729
24 P7 94 1.241
24 P7 95 -0.224
24 P7 96 -1.689
24 P7 97 -2.177
24 P7 98 -2.177
24 P7 99 -1.689
24 P7 100 -0.712
24 P7 101 -0.224
24 P7 102 0.753
24 P7 103 1.241
24 P7 104 2.706
24 P7 105 3.682
24 P7 106 5.147
24 P7 107 6.124
24 P7 108 6.612
24 P7 109 5.636
24 P7 110 3.194
24 P7 111 0.753
24 P7 112 -2.177
24 P7 113 -4.130
24 P7 114 -4.618
24 P7 115 -3.642
24 P7 116 -0.712
24 P7 117 3.194
24 P7 118 6.124
24 P7 119 8.077
24 P7 120 8.077
24 P7 121 6.124
24 P7 122 3.682
24 P7 123 1.241
24 P7 124 -0.224
24 P7 125 -2.177
24 P7 126 -4.618
24 P7 127 -7.060
24 P7 128 -9.013
24 P7 129 -8.036
24 P7 130 -4.618
24 P7 131 -0.224
24 P7 132 3.194
24 P7 133 4.659
24 P7 134 3.682
24 P7 135 2.218
24 P7 136 0.753
24 P7 137 -0.712
24 P7 138 -1.689
24 P7 139 -2.665
24 P7 140 -3.642
24 P7 141 -3.642
24 P7 142 -2.665
24 P7 143 -1.689
24 P7 144 -0.224
24 P7 145 0.753
24 P7 146 1.729
24 P7 147 2.218
24 P7 148 1.729
24 P7 149 0.753
24 P7 150 -1.200
24 P7 151 -2.665
24 P7 152 -3.153
24 P7 153 -3.642
24 P7 154 -3.153
24 P7 155 -3.642
24 P7 156 -4.130
24 P7 157 -5.107
24 P7 158 -6.571
24 P7 159 -7.060
24 P7 160 -7.548
24 P7 161 -7.060
24 P7 162 -5.107
24 P7 163 -1.200
24 P7 164 3.682
24 P7 165 8.565
24 P7 166 11.495
24 P7 167 11.983
24 P7 168 10.030
24 P7 169 6.612
24 P7 170 4.171
24 P7 171 1.729
24 P7 172 -0.224
24 P7 173 -2.665
24 P7 174 -4.618
24 P7 175 -6.571
24 P7 176 -6.571
24 P7 177 -4.618
24 P7 178 -0.712
24 P7 179 3.682
24 P7 180 5.636
24 P7 181 4.659
24 P7 182 1.729
24 P7 183 -2.177
24 P7 184 -5.107
24 P7 185 -7.548
24 P7 186 -9.013
24 P7 187 -10.478
24 P7 188 -11.943
24 P7 189 -12.919
24 P7 190 -12.919
24 P7 191 -10.478
24 P7 192 -6.083
24 P7 193 -0.712
24 P7 194 4.171
24 P7 195 6.612
24 P7 196 5.636
24 P7 197 1.729
24 P7 198 -3.153
24 P7 199 -7.060
24 P7 200 -7.060
24 P7 201 -4.130
24 P7 202 0.264
24 P7 203 3.194
24 P7 204 4.171
24 P7 205 3.682
24 P7 206 3.194
24 P7 207 2.706
24 P7 208 2.218
24 P7 209 0.264
24 P7 210 -4.130
24 P7 211 -9.501
24 P7 212 -12.431
24 P7 213 -12.431
24 P7 214 -9.013
24 P7 215 -5.107
24 P7 216 -4.130
24 P7 217 -4.618
24 P7 218 -6.083
24 P7 219 -5.595
24 P7 220 -3.642
24 P7 221 -2.177
24 P7 222 -3.153
24 P7 223 -7.060
24 P7 224 -10.966
24 P7 225 -12.431
24 P7 226 -9.501
24 P7 227 -3.642
24 P7 228 1.729
24 P7 229 3.194
24 P7 230 0.753
24 P7 231 -3.642
24 P7 232 -6.571
24 P7 233 -6.571
24 P7 234 -4.618
24 P7 235 -2.177
24 P7 236 -0.224
24 P7 237 -0.224
24 P7 238 -1.200
24 P7 239 -2.177
24 P7 240 -3.642
24 P7 241 -5.107
24 P7 242 -5.107
24 P7 243 -3.642
24 P7 244 -0.224
24 P7 245 3.194
24 P7 246 4.659
24 P7 247 2.706
24 P7 248 -2.177
24 P7 249 -8.036
24 P7 250 -11.454
24 P7 251 -11.454
24 P7 252 -7.060
24 P7 253 -1.689
24 P7 254 2.706
24 P7 255 5.147
# PO2 chan 27
24 PO2 0 8.555
24 PO2 1 9.043
24 PO2 2 8.555
24 PO2 3 6.602
24 PO2 4 4.161
24 PO2 5 1.231
24 PO2 6 -1.211
24 PO2 7 -3.652
24 PO2 8 -5.605
24 PO2 9 -7.558
24 PO2 10 -7.558
24 PO2 11 -6.093
24 PO2 12 -2.675
24 PO2 13 2.207
24 PO2 14 6.114
24 PO2 15 8.555
24 PO2 16 8.555
24 PO2 17 6.602
24 PO2 18 3.672
24 PO2 19 0.254
24 PO2 20 -2.187
24 PO2 21 -4.140
24 PO2 22 -4.628
24 PO2 23 -3.652
24 PO2 24 -1.699
24 PO2 25 2.207
24 PO2 26 6.114
24 PO2 27 9.043
24 PO2 28 8.555
24 PO2 29 5.625
24 PO2 30 0.743
24 PO2 31 -2.675
24 PO2 32 -4.628
24 PO2 33 -4.140
24 PO2 34 -2.187
24 PO2 35 -0.722
24 PO2 36 0.254
24 PO2 37 0.743
24 PO2 38 0.743
24 PO2 39 -0.234
24 PO2 40 -2.675
24 PO2 41 -6.093
24 PO2 42 -10.976
24 PO2 43 -14.882
24 PO2 44 -16.347
24 PO2 45 -15.859
24 PO2 46 -13.418
24 PO2 47 -10.488
24 PO2 48 -8.535
24 PO2 49 -8.046
24 PO2 50 -8.535
24 PO2 51 -8.535
24 PO2 52 -8.535
24 PO2 53 -8.046
24 PO2 54 -8.046
24 PO2 55 -8.046
24 PO2 56 -8.046
24 PO2 57 -7.070
24 PO2 58 -5.117
24 PO2 59 -1.699
24 PO2 60 2.696
24 PO2 61 5.625
24 PO2 62 7.579
24 PO2 63 7.579
24 PO2 64 6.114
24 PO2 65 3.672
24 PO2 66 1.231
24 PO2 67 -1.699
24 PO2 68 -3.652
24 PO2 69 -4.628
24 PO2 70 -4.140
24 PO2 71 -3.652
24 PO2 72 -2.187
24 PO2 73 -1.211
24 PO2 74 -1.211
24 PO2 75 -2.187
24 PO2 76 -4.140
24 PO2 77 -5.605
24 PO2 78 -6.093
24 PO2 79 -6.093
24 PO2 80 -5.605
24 PO2 81 -4.140
24 PO2 82 -3.164
24 PO2 83 -1.699
24 PO2 84 -0.722
24 PO2 85 0.254
24 PO2 86 1.231
24 PO2 87 1.719
24 PO2 88 1.719
24 PO2 89 0.743
24 PO2 90 -0.234
24 PO2 91 -2.187
24 PO2 92 -3.164
24 PO2 93 -3.652
24 PO2 94 -3.164
24 PO2 95 -1.699
24 PO2 96 -0.234
24 PO2 97 0.254
24 PO2 98 0.254
24 PO2 99 -0.722
24 PO2 100 -0.722
24 PO2 101 -1.211
24 PO2 102 -0.722
24 PO2 103 -1.211
24 PO2 104 -1.699
24 PO2 105 -2.187
24 PO2 106 -1.211
24 PO2 107 1.231
24 PO2 108 4.161
24 PO2 109 6.602
24 PO2 110 7.090
24 PO2 111 4.649
24 PO2 112 1.719
24 PO2 113 -0.722
24 PO2 114 -1.211
24 PO2 115 0.254
24 PO2 116 1.719
24 PO2 117 1.719
24 PO2 118 1.231
24 PO2 119 0.743
24 PO2 120 0.743
24 PO2 121 1.719
24 PO2 122 3.184
24 PO2 123 3.672
24 PO2 124 2.207
24 PO2 125 -0.234
24 PO2 126 -3.164
24 PO2 127 -5.117
24 PO2 128 -5.605
24 PO2 129 -4.140
24 PO2 130 -2.187
24 PO2 131 -0.234
24 PO2 132 1.231
24 PO2 133 2.207
24 PO2 134 2.207
24 PO2 135 1.231
24 PO2 136 -0.234
24 PO2 137 -1.699
24 PO2 138 -2.675
24 PO2 139 -2.675
24 PO2 140 -1.699
24 PO2 141 -0.722
24 PO2 142 0.254
24 PO2 143 0.254
24 PO2 144 -0.234
24 PO2 145 -0.234
24 PO2 146 0.254
24 PO2 147 1.231
24 PO2 148 1.231
24 PO2 149 0.254
24 PO2 150 -1.211
24 PO2 151 -3.652
24 PO2 152 -4.628
24 PO2 153 -4.628
24 PO2 154 -3.652
24 PO2 155 -2.187
24 PO2 156 -1.699
24 PO2 157 -2.675
24 PO2 158 -4.140
24 PO2 159 -5.117
24 PO2 160 -5.117
24 PO2 161 -3.652
24 PO2 162 -2.187
24 PO2 163 -0.234
24 PO2 164 0.743
24 PO2 165 1.719
24 PO2 166 3.672
24 PO2 167 4.649
24 PO2 168 4.649
24 PO2 169 3.184
24 PO2 170 0.254
24 PO2 171 -2.675
24 PO2 172 -5.605
24 PO2 173 -5.605
24 PO2 174 -3.652
24 PO2 175 0.254
24 PO2 176 4.649
24 PO2 177 7.579
24 PO2 178 9.043
24 PO2 179 8.555
24 PO2 180 7.090
24 PO2 181 4.161
24 PO2 182 1.231
24 PO2 183 -2.187
24 PO2 184 -6.093
24 PO2 185 -9.511
24 PO2 186 -10.976
24 PO2 187 -10.000
24 PO2 188 -8.046
24 PO2 189 -5.605
24 PO2 190 -3.164
24 PO2 191 -0.722
24 PO2 192 0.743
24 PO2 193 1.719
24 PO2 194 2.207
24 PO2 195 2.207
24 PO2 196 0.743
24 PO2 197 -1.211
24 PO2 198 -3.652
24 PO2 199 -5.605
24 PO2 200 -6.582
24 PO2 201 -6.093
24 PO2 202 -4.140
24 PO2 203 -1.211
24 PO2 204 0.743
24 PO2 205 1.719
24 PO2 206 1.231
24 PO2 207 -0.234
24 PO2 208 -2.675
24 PO2 209 -5.117
24 PO2 210 -6.582
24 PO2 211 -6.582
24 PO2 212 -5.605
24 PO2 213 -4.140
24 PO2 214 -3.164
24 PO2 215 -2.675
24 PO2 216 -3.164
24 PO2 217 -4.628
24 PO2 218 -6.093
24 PO2 219 -6.582
24 PO2 220 -7.070
24 PO2 221 -6.093
24 PO2 222 -5.605
24 PO2 223 -4.628
24 PO2 224 -4.140
24 PO2 225 -3.652
24 PO2 226 -2.675
24 PO2 227 -1.211
24 PO2 228 -0.234
24 PO2 229 0.254
24 PO2 230 -0.722
24 PO2 231 -2.675
24 PO2 232 -5.117
24 PO2 233 -6.582
24 PO2 234 -6.582
24 PO2 235 -4.628
24 PO2 236 -2.675
24 PO2 237 -0.722
24 PO2 238 -0.234
24 PO2 239 -0.722
24 PO2 240 -1.699
24 PO2 241 -1.211
24 PO2 242 0.254
24 PO2 243 1.719
24 PO2 244 3.184
24 PO2 245 3.184
